#   1 NUMBER                 Running object number                                     
#   2 X_IMAGE                Object position along x                                    [pixel]
#   3 Y_IMAGE                Object position along y                                    [pixel]
#   4 XWIN_IMAGE             Windowed position estimate along x                         [pixel]
#   5 YWIN_IMAGE             Windowed position estimate along y                         [pixel]
#   6 XMODEL_IMAGE           X coordinate from model-fitting                            [pixel]
#   7 YMODEL_IMAGE           Y coordinate from model-fitting                            [pixel]
#   8 FLUX_AUTO              Flux within a Kron-like elliptical aperture                [count]
#   9 FLUX_MODEL             Flux from model-fitting                                    [count]
#  10 MAG_AUTO               Kron-like elliptical aperture magnitude                    [mag]
#  11 MAG_MODEL              Magnitude from model-fitting                               [mag]
#  12 FLUX_RADIUS            Fraction-of-light radii                                    [pixel]
#  13 FLAGS                  Extraction flags                                          
#  14 NITER_MODEL            Number of iterations for model-fitting                    
#  15 ALPHA_SKY              Right ascension of barycenter (native)                     [deg]
#  16 DELTA_SKY              Declination of barycenter (native)                         [deg]
#  17 THETA_WORLD            Position angle (CCW/world-x)                               [deg]
#  18 ELLIPTICITY            1 - B_IMAGE/A_IMAGE                                       
         1   1619.8485      2.2995   1619.4012      1.7656   1619.1497     -0.2798     116132.1     350213.8 -12.6624 -13.8608      2.655  24  36 185.7219220 +65.7711338  -3.46    0.614
         2    293.0786      3.6307    293.3867      3.7334    293.1319      2.6091     20618.32     120447.9 -10.7856 -12.7020      5.456  16  56 186.6261990 +65.7344434   9.18    0.330
         3    678.9241     39.6254    678.9198     39.6380    678.9143     39.6278      12414.9     12787.77 -10.2349 -10.2670      2.006   0  42 186.3609559 +65.7354908 -77.84    0.122
         4    430.8368     52.1960    430.8111     52.1173    430.8045     52.1205     27428.17     28223.34 -11.0955 -11.1265      2.017   0  32 186.5289722 +65.7248847 -68.52    0.042
         5    246.5894     76.7181    246.4969     76.4680    246.5239     76.5479     367124.3     369651.4 -13.9120 -13.9195      2.052   0  38 186.6525773 +65.7126412  78.55    0.031
         6   1565.2588     70.3192   1565.2693     70.2423   1565.2577     70.2336     12548.83      12945.3 -10.2465 -10.2803      2.025   0  47 185.7549029 +65.7507055 -65.78    0.057
         7   1568.8081    125.3543   1568.7726    125.1707   1568.7710    125.1974     76360.87     77853.26 -12.2072 -12.2282      1.995   0  44 185.7490299 +65.7353903 -81.17    0.062
         8    904.2656    125.1032    904.2822    125.0365    904.2765    125.0374     20967.79      21778.3 -10.8039 -10.8451      1.997   0  28 186.2016996 +65.7178572 -64.34    0.037
         9    883.0268    127.9393    883.0111    127.8494    883.0025    127.8571     26153.42     27387.99 -11.0438 -11.0939      2.000   0  56 186.2159653 +65.7164792 -59.21    0.042
        10   1184.0555    130.0354   1184.1091    129.9804   1184.0979    129.9797     19701.97     20611.97 -10.7363 -10.7853      1.992   0  40 186.0108681 +65.7240514 -54.98    0.052
        11    554.1288    132.3280    554.0189    132.2630    554.0139    132.2633     13289.58     13918.18 -10.3088 -10.3590      2.040   0  30 186.4394551 +65.7060226 -64.02    0.043
        12   2919.1091    154.4805   2919.0662    154.3717   2919.0591    154.3945     38550.71     39632.22 -11.4651 -11.4951      1.959   0  62 184.8261286 +65.7588869 -67.86    0.031
        13    240.0710    193.0892    239.9995    192.8695    240.0161    192.9316     188155.3     189196.9 -13.1863 -13.1923      2.031   0  59 186.6486361 +65.6799128 -89.40    0.022
        14    368.5457    181.9055    368.5819    181.8093    368.5696    181.8117      11520.5     11925.68 -10.1537 -10.1912      1.955   0  35 186.5621411 +65.6868060 -11.38    0.116
        15    558.3747    221.8344    558.3643    221.7817    558.3588    221.7828     21943.86     22679.38 -10.8533 -10.8891      1.999   0  59 186.4303293 +65.6811104 -36.99    0.030
        16    577.0334    234.8231    577.0079    234.8530    576.9991    234.8524     13018.96     13542.36 -10.2864 -10.3292      1.996   0  65 186.4167467 +65.6780091  65.78    0.038
        17    809.5770    265.8557    809.5365    265.7643    809.5306    265.7718      24692.5     25323.04 -10.9814 -11.0088      1.977   0  47 186.2565904 +65.6758640 -34.31    0.032
        18    250.2288    278.0106    250.1659    277.9446    250.1466    277.9513     16215.39     16715.18 -10.5248 -10.5578      2.027   0  38 186.6356426 +65.6564669 -74.05    0.075
        19   1926.6255    327.1075   1926.5522    326.8525   1926.5925    327.1374      1456805      1422184 -15.4085 -15.3824      2.147   4  67 185.4929691 +65.6878134  81.21    0.063
        20   2171.2129    306.5337   2171.1351    306.4918   2171.1214    306.5000     16419.65     16854.59 -10.5384 -10.5668      1.951   0  57 185.3276738 +65.6994425 -35.50    0.061
        21   2327.4143    326.6339   2327.3841    326.5089   2327.3822    326.5238     41993.04     43321.41 -11.5579 -11.5918      1.984   0  39 185.2201466 +65.6974628 -69.57    0.049
        22     45.8438    322.1111     45.8283    322.0734     45.8169    322.0711     17869.68     18460.16 -10.6303 -10.6656      2.002   0  24 186.7711203 +65.6380527 -44.32    0.082
        23    238.5839    338.7712    238.5711    338.7834    238.5572    338.7827     14884.87     15242.34 -10.4319 -10.4576      1.990   0  35 186.6391889 +65.6391330 -53.05    0.099
        24   1076.9363    356.8400   1076.9235    356.7108   1076.9239    356.7172     36355.54     37391.24 -11.4014 -11.4319      1.981   0  23 186.0688520 +65.6577115 -58.08    0.048
        25   2455.6931    394.3079   2455.6223    394.0714   2455.6300    394.1528     341354.1       341146 -13.8330 -13.8324      2.052   0  55 185.1289939 +65.6814417  88.00    0.053
        26   2732.8184    375.0949   2732.8589    374.9891   2732.8511    374.9906     13948.56     14482.52 -10.3613 -10.4021      1.948   0  32 184.9413785 +65.6930105 -48.46    0.050
        27   2429.1680    395.6285   2429.1433    395.5034   2429.1338    395.5201     45638.58     47052.93 -11.6483 -11.6815      1.995   0  40 185.1469732 +65.6804676 -73.66    0.053
        28   1661.4401    390.6511   1661.4112    390.5495   1661.4089    390.5517      20859.2      21468.2 -10.7982 -10.8295      1.970   0  34 185.6694861 +65.6634566  89.37    0.051
        29   1908.1825    415.4887   1908.1390    415.2657   1908.1370    415.3262     181086.6     182820.3 -13.1447 -13.1551      2.010   0  48 185.5002267 +65.6626095  86.91    0.057
        30   2656.9985    437.3664   2656.9540    437.1609   2656.9551    437.1956     97125.12      98883.7 -12.4683 -12.4878      1.996   0  42 184.9896195 +65.6738871 -79.27    0.066
        31   2338.8032    459.0969   2338.7246    458.8571   2338.7699    459.0510      1196562      1155365 -15.1948 -15.1568      2.067   4  65 185.2048703 +65.6606092  82.09    0.048
        32    295.3975    465.6028    295.3334    465.4049    295.3456    465.4527     115811.2     117575.7 -12.6594 -12.6758      2.023   0  63 186.5916199 +65.6053316 -70.35    0.053
        33   2094.1685    519.0399   2094.0993    518.8064   2094.1500    519.1762      1918346      2093259 -15.7073 -15.8021      2.315   4  81 185.3677033 +65.6380818  82.94    0.097
        34   1597.3849    513.5789   1597.3857    513.4686   1597.3836    513.4794     20506.72     21156.64 -10.7797 -10.8136      1.940   0  39 185.7054095 +65.6274179 -67.06    0.086
        35    406.3029    523.0930    406.2995    523.0697    406.2918    523.0707     23556.66     24380.19 -10.9303 -10.9676      1.988   0  61 186.5124313 +65.5924773 -39.19    0.045
        36   2034.4274    541.2954   2034.3851    541.0781   2034.3931    541.1231       132070       134022 -12.8020 -12.8179      1.995   0  54 185.4069802 +65.6304201 -86.85    0.061
        37     76.7737    549.9352     76.6949    549.6954     76.7118    549.7616     268798.8     270485.9 -13.5736 -13.5804      2.039   0  51 186.7335890 +65.5752781  89.93    0.029
        38    622.7808    553.9989    622.7048    553.7599    622.7200    553.8306     195526.2     196777.8 -13.2280 -13.2349      2.034   0  52 186.3636639 +65.5900171 -89.80    0.045
        39   3000.3301    569.1153   3000.2656    568.8615   3000.2762    568.9771     377699.6     375628.2 -13.9429 -13.9369      2.024   0  49 184.7491203 +65.6443557  86.07    0.057
        40   3050.0151    619.2676   3049.9536    619.0621   3050.0238    619.4825      1939200      2058667 -15.7191 -15.7840      2.369   4  75 184.7127725 +65.6313327  82.47    0.108
        41   2735.7385    596.9637   2735.7278    596.8065   2735.7186    596.8245     35288.49      36223.3 -11.3691 -11.3975      1.977   0  36 184.9274630 +65.6308784 -64.58    0.079
        42    896.8254    604.6892    896.7879    604.5478    896.7899    604.5692      54731.4     56272.36 -11.8456 -11.8757      1.966   0  42 186.1746107 +65.5834554 -62.47    0.044
        43   2223.6211    625.7896   2223.5497    625.5289   2223.5688    625.6631     959326.3     952715.9 -14.9549 -14.9474      2.057   0 100 185.2736268 +65.6112249  87.22    0.061
        44   2952.3184    606.1841   2952.2956    606.1233   2952.2834    606.1178      15323.6     15804.71 -10.4634 -10.4970      1.944   0  39 184.7798274 +65.6329486 -64.41    0.075
        45    709.4984    615.8325    709.5276    615.7702    709.5196    615.7729     19110.28     19765.08 -10.7032 -10.7397      1.976   0  32 186.3007157 +65.5751524 -76.82    0.077
        46   2460.9604    631.4935   2460.8959    631.2629   2460.9132    631.3448     324646.2     325925.4 -13.7785 -13.7828      2.022   0  70 185.1121930 +65.6150885  89.64    0.053
        47    963.3214    692.9197    963.2495    692.6748    963.2688    692.7422     217400.3     218409.5 -13.3432 -13.3482      2.020   0  47 186.1237307 +65.5605749  82.64    0.043
        48    683.8779    696.2774    683.8234    696.1442    683.8277    696.1643     57947.48     59573.02 -11.9076 -11.9376      1.988   0  47 186.3125831 +65.5519246 -56.13    0.052
        49   1274.0757    700.8204   1274.0445    700.6316   1274.0409    700.6523     82355.35     84086.34 -12.2892 -12.3118      2.005   0  43 185.9128407 +65.5666596 -70.20    0.049
        50   1001.0575    728.0745   1001.0446    727.9725   1001.0342    727.9862     31264.58     32324.13 -11.2376 -11.2738      1.983   0  46 186.0958766 +65.5517576 -84.69    0.046
        51   2766.3071    747.1774   2766.2930    747.0243   2766.2875    747.0521     66767.64     68402.01 -12.0614 -12.0877      1.973   0  42 184.8986911 +65.5894312 -70.92    0.071
        52   1583.5878    767.8253   1583.5432    767.6347   1583.5470    767.6688     122664.8     124510.2 -12.7218 -12.7380      1.994   0  55 185.6990640 +65.5558663  89.01    0.043
        53     23.0779    779.5261     23.0333    779.4630     23.0212    779.4696     18281.98     19092.95 -10.6551 -10.7022      1.983   0  39 186.7532246 +65.5094648 -26.64    0.099
        54   2384.7002    793.7408   2384.6595    793.5490   2384.6589    793.5871     118483.5     122272.2 -12.6841 -12.7183      1.994   0  30 185.1548803 +65.5678804 -78.74    0.064
        55    273.3811    793.6412    273.3261    793.4408    273.3397    793.4977     134861.8     137095.2 -12.8247 -12.8426      2.044   0  50 186.5832425 +65.5129323 -78.63    0.051
        56   1104.1315    819.6881   1104.0473    819.4287   1104.0805    819.5416     461228.3     461319.5 -14.1598 -14.1600      2.052   0  47 186.0201758 +65.5288817  82.88    0.046
        57   1154.4060    803.5517   1154.4610    803.4650   1154.4555    803.4648     11698.11     12065.93 -10.1703 -10.2039      2.008   0  35 185.9872250 +65.5347384 -49.88    0.095
        58   2539.2498    807.7086   2539.2236    807.6613   2539.2055    807.6587     18236.96      18819.3 -10.6524 -10.6865      1.981   0  37 185.0493707 +65.5674595 -58.96    0.083
        59   1867.2711    846.3259   1867.2363    846.1842   1867.2262    846.1987     40664.66     41746.03 -11.5230 -11.5515      1.953   0  62 185.5022764 +65.5409229 -63.79    0.046
        60   1706.4199    868.9391   1706.3458    868.6853   1706.3968    868.8171     948286.2     955467.4 -14.9423 -14.9505      2.029   0  55 185.6097576 +65.5306251  75.73    0.047
        61    929.6669    867.3713    929.5846    867.1112    929.6128    867.2457     544028.8     541109.6 -14.3391 -14.3332      2.020   0  44 186.1349618 +65.5108283  80.11    0.051
        62    198.4035    858.4577    198.3634    858.2717    198.3668    858.2978     60944.54      62260.1 -11.9623 -11.9855      2.009   0  46 186.6292444 +65.4926013 -64.61    0.068
        63   1517.4092    879.5413   1517.3235    879.2742   1517.3918    879.4903      1202910      1192989 -15.2006 -15.1916      2.064   4  87 185.7369425 +65.5228994  83.33    0.036
        64    515.5070    858.1490    515.4543    858.1147    515.4476    858.1132     19777.91     20598.72 -10.7405 -10.7846      1.966   0  50 186.4152700 +65.5018731 -63.76    0.032
        65    790.4272    871.3666    790.3885    871.2727    790.3907    871.2622     17684.94     18712.05 -10.6190 -10.6803      1.991   0  31 186.2287445 +65.5058898 -52.93    0.019
        66   1846.5067    898.8772   1846.4830    898.7625   1846.4822    898.7724     34154.29     35183.95 -11.3336 -11.3659      1.933   0  48 185.5131979 +65.5256934 -59.55    0.055
        67    775.4670    915.5110    775.4530    915.5140    775.4523    915.5134     13103.19     13596.39 -10.2934 -10.3336      1.976   0  37 186.2358856 +65.4931206 -18.72    0.006
        68   1313.7141    937.1940   1313.7362    937.1056   1313.7242    937.1057     13743.94     14275.04 -10.3453 -10.3864      1.937   0  44 185.8710049 +65.5015092 -65.09    0.023
        69     48.0831    985.5344     48.0285    985.3691     48.0266    985.4071     73208.22     74743.65 -12.1614 -12.1839      2.041   0  45 186.7214676 +65.4525994 -62.19    0.058
        70    832.0819   1066.0890    832.0401   1065.9037    832.0426   1065.9367     79281.45      80889.8 -12.2479 -12.2697      2.003   0  30 186.1876461 +65.4525345 -79.63    0.042
        71   2712.4385   1068.0045   2712.4125   1067.8684   2712.4151   1067.8931     54550.78      56295.4 -11.8420 -11.8762      1.979   0  38 184.9181076 +65.4983125 -85.57    0.070
        72   2343.2793   1074.9238   2343.2827   1074.8586   2343.2765   1074.8719     23327.35     24041.75 -10.9197 -10.9524      1.928   0  31 185.1672088 +65.4881239 -78.94    0.041
        73    308.8947   1085.0879    308.8776   1084.9882    308.8707   1085.0009     28925.18     29815.62 -11.1532 -11.1861      2.020   0  32 186.5387724 +65.4324346 -68.82    0.080
        74   2536.2642   1108.1343   2536.2068   1107.8765   2536.2115   1108.0068     410824.9     407399.4 -14.0341 -14.0251      2.047   0  55 185.0350002 +65.4831780  87.42    0.053
        75   2761.3884   1125.7445   2761.3406   1125.5661   2761.3498   1125.6042     136145.7       138386 -12.8350 -12.8527      1.990   0  48 184.8819718 +65.4831863 -89.11    0.056
        76   1293.5917   1124.8333   1293.6088   1124.8244   1293.5934   1124.8238     14858.73     15339.54 -10.4300 -10.4645      1.933   0  38 185.8727286 +65.4484391 -49.15    0.064
        77   2123.7759   1148.1532   2123.7033   1147.9483   2123.7146   1148.0107     139095.3     141311.3 -12.8583 -12.8754      1.990   0  33 185.3112966 +65.4625017 -87.23    0.032
        78   2902.7573   1179.1390   2902.7053   1179.0432   2902.6921   1179.0545     26939.09     27722.66 -11.0760 -11.1071      1.953   0  35 184.7837012 +65.4712404  76.55    0.050
        79   3012.0959   1188.3981   3012.0585   1188.2406   3012.0547   1188.2670     63126.44     64825.01 -12.0005 -12.0294      1.970   0  37 184.7093948 +65.4709413 -81.44    0.063
        80   2833.5857   1186.6318   2833.5702   1186.4964   2833.5617   1186.5170     49599.23     51274.52 -11.7387 -11.7748      1.965   0  34 184.8300185 +65.4676672 -78.21    0.075
        81   2969.3198   1191.1125   2969.2826   1191.0691   2969.2707   1191.0649     17602.91     18227.23 -10.6140 -10.6518      1.976   0  33 184.7381401 +65.4692857 -85.55    0.055
        82   2702.2539   1201.3336   2702.2530   1201.2748   2702.2357   1201.2775     12015.82     12328.77 -10.1994 -10.2273      1.945   0  29 184.9179053 +65.4607099 -61.17    0.068
        83   1218.9521   1207.9684   1218.9169   1207.9525   1218.9094   1207.9549      12657.5     13130.46 -10.2559 -10.2957      1.962   0  49 185.9177613 +65.4232052 -45.63    0.023
        84   1198.3308   1219.3048   1198.3178   1219.1858   1198.3157   1219.2033     44266.08      45548.7 -11.6152 -11.6462      1.954   0  49 185.9309284 +65.4194884 -60.91    0.036
        85    511.9757   1227.0211    511.9415   1226.8362    511.9463   1226.8706     78146.69     79702.14 -12.2323 -12.2537      2.036   0  54 186.3923020 +65.3985525 -71.27    0.057
        86    967.5509   1245.4852    967.4736   1245.2724    967.4956   1245.3269     143705.3     145727.9 -12.8937 -12.9089      1.999   0  40 186.0845987 +65.4060035 -87.81    0.034
        87   2560.9080   1244.6141   2560.8873   1244.6240   2560.8890   1244.6428     51226.93     53244.59 -11.7737 -11.8157      1.961   3  35 185.0109674 +65.4454670 -85.71    0.017
        88   2562.4460   1251.1715   2562.4056   1251.1875   2562.4041   1251.2274     30661.55     32784.84 -11.2165 -11.2892      2.212   3  27 185.0095757 +65.4436629 -50.01    0.046
        89   1715.6262   1275.2198   1715.6089   1275.0958   1715.6004   1275.1133     51880.81     53687.02 -11.7875 -11.8247      1.929   0  56 185.5790585 +65.4170388 -55.49    0.022
        90   2068.8464   1279.5813   2068.8282   1279.4826   2068.8246   1279.4906     22639.78     23381.88 -10.8872 -10.9222      1.935   0  46 185.3408057 +65.4243731 -34.68    0.048
        91    635.0708   1283.0309    635.0705   1282.9355    635.0543   1282.9514     29339.96     30234.12 -11.1686 -11.2012      2.016   0  59 186.3057310 +65.3863481 -58.32    0.049
        92   1745.6617   1309.5636   1745.6104   1309.4176   1745.6060   1309.4490     62431.75     63841.38 -11.9885 -12.0128      1.954   0  42 185.5567748 +65.4081591 -62.27    0.020
        93   1368.6626   1321.7446   1368.6555   1321.6435   1368.6479   1321.6527     35942.53      37059.3 -11.3890 -11.4222      1.961   0  32 185.8098155 +65.3952378 -34.99    0.023
        94   2281.8655   1342.6514   2281.8550   1342.5850   2281.8489   1342.5834     19182.63     19731.09 -10.7073 -10.7379      1.969   0  43 185.1936955 +65.4116738 -60.36    0.059
        95   2327.2727   1365.9712   2327.2151   1365.7433   2327.2306   1365.8345     314205.5     315116.5 -13.7430 -13.7462      1.981   0  56 185.1618093 +65.4061802  83.55    0.047
        96    677.3095   1365.6547    677.3170   1365.6319    677.3042   1365.6296     13052.96     13455.56 -10.2893 -10.3223      1.984   0  43 186.2717870 +65.3644021 -52.97    0.024
        97   2877.7839   1411.4823   2877.8138   1411.4057   2877.8029   1411.4126     14100.56     14630.76 -10.3731 -10.4132      1.954   0  27 184.7885526 +65.4055612 -68.22    0.062
        98   2615.2307   1435.6768   2615.1680   1435.5339   2615.1569   1435.5490     42941.61     44792.32 -11.5822 -11.6280      1.969   0  24 184.9640960 +65.3931044 -81.96    0.069
        99   2645.4272   1446.4509   2645.3680   1446.2250   2645.3795   1446.2926     204410.8     206739.6 -13.2763 -13.2886      1.990   0  66 184.9431923 +65.3907469  84.39    0.053
       100    672.2910   1435.1641    672.2640   1435.0011    672.2595   1435.0224     39394.82     40633.01 -11.4886 -11.5222      2.014   0  71 186.2704956 +65.3448066 -59.27    0.052
       101   1572.5330   1441.5742   1572.5055   1441.4695   1572.5042   1441.4801     27777.02     28854.86 -11.1092 -11.1505      1.926   0  40 185.6653203 +65.3668646 -82.09    0.024
       102   1455.0051   1444.0895   1454.9431   1443.9974   1454.9332   1444.0004     15533.42     16064.12 -10.4782 -10.5146      1.989   0  40 185.7441723 +65.3631838 -32.70    0.045
       103    974.5899   1474.3165    974.5486   1474.1660    974.5451   1474.1848     57834.23     59491.64 -11.9055 -11.9361      1.984   0  42 186.0649851 +65.3421250 -69.40    0.051
       104   1143.9341   1468.8965   1143.9091   1468.8725   1143.9013   1468.8795     17425.59     18063.56 -10.6030 -10.6420      1.950   0  38 185.9516225 +65.3481602 -32.18    0.050
       105   2941.9397   1552.7336   2941.9579   1553.0624   2942.1114   1553.2818      9227461 1.017837e+07 -17.4127 -17.5192      5.682   4 105 184.7381293 +65.3673070  85.24    0.707
       106   1904.4124   1478.6160   1904.4766   1478.5831   1904.4704   1478.5805     11879.34     12388.19 -10.1870 -10.2325      1.950   0  50 185.4399752 +65.3646659 -47.19    0.098
       107   2640.7324   1482.0834   2640.7518   1482.0215   2640.7363   1482.0203     18070.18     18758.01 -10.6424 -10.6830      1.956   0  40 184.9444579 +65.3806542 -74.08    0.086
       108   1660.9093   1495.4022   1660.8293   1495.3404   1660.8151   1495.3470     12597.58      13183.6 -10.2507 -10.3001      1.926   0  36 185.6026677 +65.3539950  87.86    0.105
       109   1242.5216   1498.0985   1242.5331   1498.0169   1242.5212   1498.0180      14263.8     14844.03 -10.3856 -10.4289      1.948   0  46 185.8835662 +65.3425724 -30.03    0.020
       110   1357.6412   1518.4480   1357.5600   1518.2161   1357.5813   1518.2994     249109.3     250425.6 -13.4910 -13.4967      2.009   0  47 185.8049887 +65.3398600 -89.54    0.055
       111    504.1737   1527.4275    504.0861   1527.1820    504.0959   1527.2602     268091.8     270037.8 -13.5707 -13.5786      2.057   0  82 186.3770326 +65.3142627 -82.03    0.052
       112    635.5101   1525.7439    635.4619   1525.5773    635.4669   1525.6058     65145.63     66524.63 -12.0347 -12.0575      2.018   0  36 186.2890941 +65.3184277 -63.19    0.045
       113    579.9552   1518.5618    579.9449   1518.5167    579.9356   1518.5205     16437.26      16721.2 -10.5396 -10.5582      1.971   0  35 186.3268284 +65.3188816 -37.53    0.089
       114   1503.5436   1522.6023   1503.5395   1522.6008   1503.5303   1522.5944     15070.14     15814.02 -10.4453 -10.4976      1.952   0  32 185.7067462 +65.3424248 -37.34    0.047
       115   2448.0530   1553.3314   2448.0786   1553.2106   2448.0660   1553.2148     25698.34     26559.39 -11.0248 -11.0605      1.946   0  59 185.0702312 +65.3564020 -86.42    0.066
       116   2759.2039   1560.1959   2759.1944   1560.1011   2759.1799   1560.1105     34776.06      35970.9 -11.3532 -11.3899      1.948   0  36 184.8606436 +65.3613284  85.33    0.037
       117    927.4012   1576.4193    927.3859   1576.3106    927.3778   1576.3139     18460.95     19029.33 -10.6656 -10.6986      1.980   0  39 186.0900167 +65.3122642 -50.03    0.057
       118    964.7773   1584.1105    964.7413   1584.0204    964.7339   1584.0285     29091.97        29826 -11.1594 -11.1865      1.996   0  35 186.0644543 +65.3111194 -55.16    0.060
       119     34.9276   1595.1926     34.8633   1595.0120     34.8704   1595.0354     64422.05     66168.73 -12.0226 -12.0516      2.037   0  47 186.6865906 +65.2816895 -67.71    0.070
       120   2503.2913   1590.1339   2503.2517   1589.9797   2503.2434   1589.9986     31503.96     32519.92 -11.2459 -11.2804      1.927   0  56 185.0311036 +65.3473227 -57.90    0.040
       121   2129.3142   1612.2894   2129.2831   1612.1413   2129.2783   1612.1546     47255.85     48793.38 -11.6861 -11.7209      1.937   0  44 185.2811532 +65.3325562 -75.77    0.037
       122   2602.6077   1628.9874   2602.5973   1628.8535   2602.5899   1628.8761     42396.55      43892.2 -11.5683 -11.6060      1.937   0  50 184.9622785 +65.3386314 -78.66    0.049
       123    175.1080   1640.8469    175.1188   1640.7688    175.1030   1640.7718     20101.38     20776.01 -10.7581 -10.7939      2.002   0  49 186.5895630 +65.2730522 -53.38    0.100
       124    162.6066   1678.2740    162.5365   1678.1025    162.5371   1678.1310     68843.37     70552.79 -12.0947 -12.1213      2.014   0  31 186.5952957 +65.2622159 -74.78    0.063
       125    691.6285   1708.6554    691.5520   1708.4408    691.5637   1708.5090     173719.9     175710.6 -13.0996 -13.1120      2.051   0  39 186.2392765 +65.2687902 -82.15    0.053
       126   1392.8041   1716.4960   1392.7877   1716.4814   1392.7716   1716.4871     18375.68     19056.76 -10.6606 -10.7001      2.007   0  40 185.7691534 +65.2852901 -16.63    0.054
       127   1617.4996   1765.4128   1617.5014   1765.3490   1617.4948   1765.3504     14550.61     14972.55 -10.4072 -10.4382      1.926   0  35 185.6156042 +65.2772667 -51.28    0.029
       128   2735.5972   1789.0771   2735.5480   1788.9169   2735.5463   1788.9209     34618.75     38383.61 -11.3483 -11.4604      1.928   0  29 184.8645569 +65.2966458 -69.79    0.043
       129   2511.5115   1818.7695   2511.5213   1818.7215   2511.5132   1818.7207     18530.47     19432.86 -10.6697 -10.7213      1.926   0  43 185.0132794 +65.2834102  89.93    0.058
       130    846.0496   1827.1528    846.0076   1827.0335    846.0077   1827.0469     47263.27     48724.27 -11.6863 -11.7194      2.012   0  23 186.1281624 +65.2398574 -52.52    0.039
       131    311.5037   1864.2552    311.3992   1864.0292    311.4341   1864.1200     351643.7     351993.1 -13.8653 -13.8663      2.061   0  51 186.4828528 +65.2145067 -84.86    0.042
       132   1610.6730   1896.2349   1610.6347   1896.1984   1610.6205   1896.1980     20549.66     21305.08 -10.7820 -10.8212      1.940   0  48 185.6123432 +65.2404441 -50.72    0.041
       133    769.8130   1896.6337    769.8744   1896.6695    769.8589   1896.6709     13968.38     14276.73 -10.3629 -10.3866      2.012   0  39 186.1745719 +65.2183230 -61.95    0.069
       134   2718.3098   1901.1459   2718.3378   1901.1061   2718.3315   1901.0991     11624.35     12092.26 -10.1634 -10.2063      1.959   0  31 184.8703060 +65.2648507 -25.38    0.049
       135     76.4477   1952.6887     76.3282   1952.4747     76.3882   1952.5887     733522.5     733657.7 -14.6635 -14.6637      2.041   0  58 186.6335103 +65.1829230 -82.90    0.043
       136   2405.3455   1965.8451   2405.2683   1965.6215   2405.3061   1965.7178       658859     672035.4 -14.5470 -14.5685      1.992   0  68 185.0764758 +65.2398014  78.97    0.046
       137   1506.2283   2009.8212   1506.1445   2009.5947   1506.1722   2009.6848     650391.6     656160.7 -14.5329 -14.5425      2.036   0  60 185.6753629 +65.2060024  85.79    0.044
       138    705.9461   2036.9491    705.8851   2036.7375    705.9032   2036.7853     165811.5     167567.8 -13.0490 -13.0605      2.052   0  40 186.2079760 +65.1772864 -77.84    0.051
       139   2865.3010   2031.7094   2865.2776   2031.5750   2865.2717   2031.5800     25794.07     26527.02 -11.0288 -11.0592      1.948   0  56 184.7651441 +65.2313848 -16.10    0.020
       140   2818.0779   2060.8232   2818.0164   2060.6272   2818.0534   2060.9292      1619310      1751110 -15.5233 -15.6083      2.207   4  69 184.7952545 +65.2222192  82.00    0.076
       141   2561.6790   2049.6853   2561.6239   2049.5350   2561.6162   2049.5542     55900.18     57663.74 -11.8685 -11.9023      1.933   0  48 184.9673628 +65.2197842 -69.08    0.033
       142   1878.0820   2062.0256   1878.0370   2061.8638   1878.0280   2061.8816     44444.23     45715.68 -11.6195 -11.6502      1.954   0  44 185.4237708 +65.2005440 -65.58    0.041
       143     96.8512   2080.3982     96.7428   2080.2159     96.7612   2080.2563     104284.2     106006.3 -12.5455 -12.5633      2.048   0  36 186.6109342 +65.1477999 -62.20    0.060
       144   2943.7927   2073.6062   2943.7836   2073.5460   2943.7728   2073.5534     20470.83     21143.43 -10.7778 -10.8129      1.915   0  42 184.7105024 +65.2212871 -61.02    0.028
       145    440.5363   2881.7222    440.5029   2881.6419    440.4720   2881.5926     75819.66      90319.2 -12.1995 -12.3895      5.340   0  35 186.3282129 +64.9334395  82.96    0.026
       146    249.1619   3073.8279    249.1133   3073.7259    249.1012   3073.7366     34537.43     35433.22 -11.3457 -11.3735      2.018  16  54 186.4415925 +64.8742687 -58.53    0.071
       147   1544.9254   2987.3289   1544.8398   2987.1177   1544.8905   2987.3061      1149401      1131303 -15.1512 -15.1339      2.053   4  44 185.5914026 +64.9330643  84.57    0.038
       148    572.6815   2979.3357    572.6920   2979.2737    572.6775   2979.2753     17376.27     17860.48 -10.5999 -10.6297      2.023   0  30 186.2344956 +64.9097892 -37.81    0.071
       149   1268.5280   2951.4563   1268.4977   2951.2800   1268.4964   2951.3123      74843.9     76628.81 -12.1854 -12.2110      1.998   0  54 185.7763975 +64.9361338 -65.40    0.050
       150   2350.9368   2946.7136   2350.9065   2946.6648   2350.9045   2946.6648      21277.9     21977.02 -10.8198 -10.8549      1.938   0  35 185.0599337 +64.9635713 -55.30    0.011
       151   2574.8708   2928.3196   2574.7865   2928.2653   2574.7707   2928.2595     11115.93     11658.98 -10.1149 -10.1667      1.884   0  42 184.9124623 +64.9737095 -79.01    0.090
       152   2262.0322   2927.1135   2262.0266   2927.0105   2262.0183   2927.0354     57980.46     59868.11 -11.9082 -11.9430      1.964   0  59 185.1199092 +64.9670500 -62.47    0.021
       153   1701.2797   2654.8633   1701.2161   2654.6673   1701.2235   2654.7183     169232.8     171357.2 -13.0712 -13.0848      2.007   0  70 185.5072029 +65.0301050 -78.86    0.049
       154   1431.8593   2648.9805   1431.8583   2648.8657   1431.8576   2648.8861     36740.08     38089.77 -11.4129 -11.4520      1.986   0  44 185.6864249 +65.0250483 -71.56    0.080
       155   3071.0554   2644.2979   3071.5588   2644.0830   3072.9101   2643.9566     47623.36     125242.8 -11.6946 -12.7444      1.532  24  57 184.5972832 +65.0638791  88.74    0.468
       156   1596.1427   2491.4666   1596.1029   2491.4460   1596.0820   2491.4524     12914.92     13355.32 -10.2777 -10.3141      1.988   0  38 185.5866517 +65.0733020 -68.44    0.031
       157   1551.3170   2626.0063   1551.2665   2625.8338   1551.2673   2625.8666     79773.14     81204.75 -12.2546 -12.2740      2.016   0  45 185.6084828 +65.0344853 -69.47    0.040
       158    310.0954   2666.5481    310.0559   2666.5123    310.0465   2666.5160     15509.13     16029.51 -10.4765 -10.5123      1.981   0  28 186.4289304 +64.9899748 -51.51    0.068
       159   2350.2349   2759.2393   2350.1652   2759.0149   2350.1963   2759.1758     967214.2     953305.9 -14.9638 -14.9481      2.037   4  76 185.0704347 +65.0161252  77.41    0.049
       160    230.8044   2524.3306    230.7429   2524.2079    230.7294   2524.2079     28192.18     29075.04 -11.1253 -11.1588      2.062   0  48 186.4911502 +65.0274991 -67.21    0.084
       161   1999.3160   2684.6099   1999.3008   2684.5606   1999.2921   2684.5600        11074     11477.09 -10.1108 -10.1496      1.959   0  38 185.3075701 +65.0289388 -52.33    0.099
       162    726.0381   2547.4875    726.0298   2547.4102    726.0205   2547.4170     23058.48     23921.28 -10.9071 -10.9470      1.991   0  37 186.1611819 +65.0349088 -66.65    0.047
       163   2415.0764   2470.4041   2415.0312   2470.2846   2415.0261   2470.3019     35687.29      36915.6 -11.3813 -11.4180      1.931   0  39 185.0427955 +65.0985686 -75.73    0.049
       164   3056.0945   2699.2148   3056.0870   2699.0128   3056.0983   2699.1547     616999.1     615691.5 -14.4757 -14.4734      2.016   0  48 184.6045427 +65.0481707  45.19    0.050
       165   1722.9009   2479.7595   1722.8979   2479.8087   1722.8900   2479.8062     14276.42     14864.96 -10.3865 -10.4304      1.988   0  31 185.5030227 +65.0797081 -82.93    0.066
       166    471.2240   2415.1892    471.1215   2415.0630    471.0943   2415.0424     14743.59     15484.65 -10.4215 -10.4748      2.114   0  34 186.3390487 +65.0648783 -49.56    0.079
       167   2403.8105   2900.1204   2403.7820   2899.9322   2403.7825   2899.9855     118462.5       120131 -12.6840 -12.6991      1.974   0  46 185.0273653 +64.9778264  82.40    0.027
       168   1073.2466   2388.2676   1073.1668   2388.1910   1073.1492   2388.1884     15297.74     15635.68 -10.4616 -10.4853      1.959   0  37 185.9407141 +65.0888212 -52.10    0.077
       169    679.1141   2193.9839    679.1184   2193.9353    679.0990   2193.9456     17713.36     18391.99 -10.6208 -10.6616      2.015   0  49 186.2155107 +65.1325862 -61.08    0.052
       170   2811.8296   2724.3716   2811.8566   2724.2819   2811.8447   2724.2786     12959.02     13578.26 -10.2814 -10.3321      1.946   0  24 184.7656358 +65.0360180 -69.20    0.030
       171    434.6842   2795.9485    434.7463   2795.8845    434.7286   2795.8859     14254.84     14606.91 -10.3849 -10.4114      2.000   0  38 186.3377974 +64.9572834 -53.52    0.087
       172   3065.3052   2843.8008   3065.2578   2843.6440   3065.2656   2843.6808     160376.8     162961.8 -13.0129 -13.0302      1.977  16  24 184.5913571 +65.0078075  83.25    0.031
       173   2196.3997   2351.9404   2196.3895   2351.8181   2196.3860   2351.8347     33402.71     34553.98 -11.3095 -11.3462      1.941   0  31 185.1949391 +65.1267993 -42.22    0.044
       174   1404.0187   2412.1428   1403.9858   2412.0385   1403.9780   2412.0432     26444.81     27296.93 -11.0559 -11.0903      2.006   0  35 185.7191995 +65.0907003 -64.06    0.085
       175   1325.9760   2281.6980   1325.9895   2281.6929   1325.9796   2281.6783     12420.12     12817.03 -10.2353 -10.2695      2.000   0  35 185.7790997 +65.1252506 -67.47    0.125
       176   2179.7817   2432.3093   2179.7851   2432.2687   2179.7712   2432.2677     20012.57     20545.04 -10.7533 -10.7818      1.975   0  43 185.2015777 +65.1038857 -34.02    0.051
       177   1676.4946   2288.8162   1676.4537   2288.6404   1676.4599   2288.6673     86142.98      87890.3 -12.3380 -12.3599      2.004   0  47 185.5451005 +65.1320766 -69.70    0.050
       178   1883.3461   2265.5520   1883.3027   2265.5129   1883.2873   2265.5179     15874.13     16062.35 -10.5017 -10.5145      1.982   0  36 185.4085381 +65.1436326 -49.53    0.056
       179   2895.7478   2265.9553   2895.7113   2265.8149   2895.7042   2265.8436     71126.91      72795.8 -12.1301 -12.1553      1.932   0  40 184.7329105 +65.1663425 -80.79    0.028
       180    825.2889   2763.9243    825.2617   2763.9370    825.2504   2763.9434     13789.02     14101.43 -10.3488 -10.3732      1.999   0  43 186.0814311 +64.9770002 -56.26    0.037
       181   2161.9836   2673.4949   2161.9152   2673.2700   2161.9382   2673.3989     564916.2     567996.3 -14.3800 -14.3859      2.014   0  79 185.2001285 +65.0358598  82.20    0.054
       182   1676.2736   2984.4844   1676.2252   2984.3889   1676.2134   2984.4119     36776.08     37746.22 -11.4139 -11.4422      2.003   0  65 185.5046543 +64.9371038 -58.74    0.065
       183    548.5361   2199.5630    548.4377   2199.3650    548.4609   2199.4363     182989.1     185758.9 -13.1561 -13.1724      2.017   0  45 186.3020757 +65.1273972 -86.01    0.045
       184    535.5587   2994.5227    535.4579   2994.2981    535.4895   2994.3935     364974.7     367451.4 -13.9057 -13.9130      2.076   0  67 186.2580044 +64.9045107 -81.51    0.047
       185   2954.5098   2149.4536   2954.5133   2149.3503   2954.5069   2149.3688     36541.23     37654.49 -11.4070 -11.4395      1.935   0  32 184.6995212 +65.2002422 -60.61    0.033
       186    543.6088   3027.0974    543.5146   3026.8750    543.5490   3027.0258     992021.6     985543.2 -14.9913 -14.9842      2.090   0 117 186.2505525 +64.8956138 -86.23    0.044
       187   1845.6235   2099.9431   1845.5478   2099.7229   1845.5674   2099.8326     497747.1     497101.4 -14.2425 -14.2411      1.998   0  57 185.4432663 +65.1891342  87.35    0.049
       188   2848.0649   3027.8357   2848.0085   3027.6221   2848.0214   3027.6830     233066.2     234806.4 -13.4187 -13.4268      1.989   0  60 184.7263254 +64.9516731  74.17    0.037
       189    486.6530   2991.1709    486.5734   2990.9651    486.5833   2991.0288     196442.9     197799.7 -13.2331 -13.2406      2.049   0  42 186.2905028 +64.9040906 -82.00    0.046
       190   2799.2710   3060.6492   2799.3148   3060.5161   2799.3097   3060.5245     23585.96     24364.45 -10.9316 -10.9669      1.948   0  40 184.7569988 +64.9414361 -77.59    0.020
       191   2494.9695   3054.3672   2494.9518   3054.2688   2494.9466   3054.2624     13941.44     14354.55 -10.3608 -10.3925      1.973   0  37 184.9588294 +64.9365989  89.99    0.115
       192    438.8752   2416.8015    438.8046   2416.6389    438.8102   2416.6668      95199.7     97070.62 -12.4466 -12.4677      2.044   0  48 186.3604194 +65.0635161 -67.52    0.054
       193   1598.4406   2998.5776   1598.4049   2998.4666   1598.3990   2998.4797     29200.25     30062.02 -11.1635 -11.1950      1.965   0  36 185.5553373 +64.9312382 -68.92    0.019
       194   1364.9346   2149.3218   1364.9135   2149.2748   1364.9059   2149.2689     12195.42     12663.98 -10.2155 -10.2564      1.961   0  33 185.7612290 +65.1633324 -80.05    0.090
       195   1863.1420   2660.4470   1863.0707   2660.3746   1863.0571   2660.3822      15925.4     16418.09 -10.5052 -10.5383      1.975   0  40 185.3993828 +65.0324673 -48.62    0.086
       196   1528.8313   2937.4731   1528.7687   2937.4419   1528.7565   2937.4437     11334.99     11707.95 -10.1361 -10.1712      1.958   0  44 185.6049879 +64.9466371 -81.31    0.064
