#   1 NUMBER                 Running object number                                     
#   2 X_IMAGE                Object position along x                                    [pixel]
#   3 Y_IMAGE                Object position along y                                    [pixel]
#   4 XWIN_IMAGE             Windowed position estimate along x                         [pixel]
#   5 YWIN_IMAGE             Windowed position estimate along y                         [pixel]
#   6 XMODEL_IMAGE           X coordinate from model-fitting                            [pixel]
#   7 YMODEL_IMAGE           Y coordinate from model-fitting                            [pixel]
#   8 FLUX_AUTO              Flux within a Kron-like elliptical aperture                [count]
#   9 FLUX_MODEL             Flux from model-fitting                                    [count]
#  10 MAG_AUTO               Kron-like elliptical aperture magnitude                    [mag]
#  11 MAG_MODEL              Magnitude from model-fitting                               [mag]
#  12 FLUX_RADIUS            Fraction-of-light radii                                    [pixel]
#  13 FLAGS                  Extraction flags                                          
#  14 NITER_MODEL            Number of iterations for model-fitting                    
#  15 ALPHA_SKY              Right ascension of barycenter (native)                     [deg]
#  16 DELTA_SKY              Declination of barycenter (native)                         [deg]
#  17 THETA_WORLD            Position angle (CCW/world-x)                               [deg]
#  18 ELLIPTICITY            1 - B_IMAGE/A_IMAGE                                       
         1   1623.6821      9.6187   1623.6235      9.2118   1623.7102      9.8227      1128334     927117.9 -15.1311 -14.9178      1.980  28  72 185.7223900 +65.7724471  89.61    0.111
         2   1983.5566      5.0695   1983.5297      4.9381   1983.5221      5.1662     14980.45        60580 -10.4388 -11.9558      3.131  16  34 185.4769640 +65.7826469 -77.32    0.112
         3    682.9832     51.8434    682.9935     51.7453    682.9882     51.7183     13778.43     15390.52 -10.3480 -10.4681      1.665   0  34 186.3609330 +65.7354552 -56.60    0.106
         4    434.8014     64.4780    434.8222     64.2507    434.8209     64.2464     30597.41     32033.68 -11.2142 -11.2640      1.753   0  35 186.5290012 +65.7248350 -65.73    0.114
         5    250.5632     89.0572    250.4974     88.6315    250.5548     88.8837     412219.3     398006.9 -14.0378 -13.9997      1.804   0  84 186.6525901 +65.7125815  89.78    0.082
         6   1569.3981     82.3168   1569.4253     82.2414   1569.4301     82.2391     13673.28      14622.2 -10.3397 -10.4125      1.682   0  42 185.7548789 +65.7507154 -50.58    0.096
         7   1572.9224    137.5028   1572.9223    137.1627   1572.9325    137.2082     85995.34     87905.19 -12.3362 -12.3600      1.727   0  74 185.7490214 +65.7353554 -70.76    0.094
         8    908.3677    137.2181    908.3714    137.0738    908.3981    137.0642     22927.18      25942.5 -10.9009 -11.0350      1.686   0  27 186.2016711 +65.7178429 -64.25    0.121
         9    887.0512    140.1456    887.1124    139.9036    887.1036    139.9252      28928.7      32216.1 -11.1533 -11.2702      1.679   0  30 186.2159828 +65.7164374 -59.60    0.137
        10   1188.2142    142.1362   1188.2146    142.0030   1188.2116    142.0210     21882.43     23331.72 -10.8502 -10.9199      1.659   0  41 186.0108155 +65.7240373 -59.80    0.088
        11    558.0140    144.4545    558.0318    144.3434    558.0206    144.3348      14736.1     15545.85 -10.4210 -10.4790      1.716   0  68 186.4395579 +65.7060066 -69.07    0.117
        12   2923.1519    166.6110   2923.1739    166.3623   2923.1724    166.3831     43263.31     45351.17 -11.5903 -11.6415      1.722   0  55 184.8262031 +65.7588233 -62.11    0.113
        13    244.0764    205.3782    244.0238    204.9648    244.0403    205.0993       212697     210920.5 -13.3194 -13.3103      1.782   0 105 186.6486324 +65.6798631 -83.31    0.085
        14    372.5689    194.0612    372.5955    193.9133    372.5982    193.8979      12792.1     14257.35 -10.2674 -10.3851      1.679   0  54 186.5621411 +65.6867896 -50.86    0.115
        15    562.3637    234.0189    562.4039    233.8512    562.4320    233.8428     24877.16     28718.86 -10.9895 -11.1454      1.721   0  35 186.4303619 +65.6810774 -69.14    0.136
        16    581.0358    247.0550    581.0389    246.9086    581.0291    246.9155     14422.04     15217.51 -10.3976 -10.4559      1.643   0  39 186.4167684 +65.6779623 -65.44    0.083
        17    813.6281    277.9717    813.6324    277.7978    813.6248    277.8154     27565.06     29319.96 -11.1009 -11.1679      1.667   0  44 186.2566023 +65.6758443 -62.96    0.094
        18    254.1764    290.1755    254.1749    289.9974    254.1897    289.9836     17784.47     18679.25 -10.6251 -10.6784      1.684   0  35 186.6356882 +65.6564463 -54.60    0.103
        19   1930.7572    339.2703   1930.7097    338.9538   1930.6930    339.6137      1603141      1344770 -15.5124 -15.3216      2.100   4  79 185.4929876 +65.6877631  88.61    0.141
        20   2175.3274    318.5902   2175.3271    318.4427   2175.3248    318.4595     18361.87     19406.19 -10.6598 -10.7199      1.707   0  41 185.3277157 +65.6994177 -62.72    0.120
        21      3.0802    330.5257      2.9027    330.2986      2.8685    330.3175      45002.6      50160.8 -11.6331 -11.7509      1.649  24  57 186.8031021 +65.6376829 -84.47    0.147
        22   2331.4951    338.7676   2331.5294    338.4965   2331.5297    338.5281     46807.48     48629.63 -11.6758 -11.7173      1.734   0  54 185.2202120 +65.6974124 -62.85    0.122
        23     49.8377    334.3642     49.8552    334.1993     49.8460    334.1872      19890.3     21368.87 -10.7466 -10.8245      1.727   0  42 186.7711150 +65.6380166 -50.50    0.106
        24    242.5398    350.9853    242.5908    350.8611    242.5857    350.8551     16950.27     18746.97 -10.5729 -10.6823      1.690   0  75 186.6392247 +65.6390972 -62.19    0.134
        25   1081.0260    368.9709   1081.0625    368.7180   1081.0600    368.7428     40531.37     42314.21 -11.5195 -11.5662      1.660   0  62 186.0688593 +65.6576809 -64.75    0.122
        26   2737.1638    386.9919   2737.1295    386.8696   2737.1173    386.8810      15390.4     16357.99 -10.4681 -10.5343      1.652   0  50 184.9412793 +65.6930244 -54.85    0.064
        27   2459.8508    406.4208   2459.8049    406.0304   2459.8281    406.1994     383991.2     368165.8 -13.9608 -13.9151      1.799   0  67 185.1290154 +65.6813957 -89.73    0.107
        28   2433.3118    407.7393   2433.3099    407.4838   2433.3285    407.5057     50836.82     54957.93 -11.7654 -11.8501      1.732   0  31 185.1470042 +65.6804223 -69.43    0.113
        29   1665.5638    402.6779   1665.5922    402.5002   1665.5803    402.5175     22799.31      23895.1 -10.8948 -10.9458      1.688   0  58 185.6695134 +65.6634465 -66.97    0.094
        30   1912.3429    427.6319   1912.3055    427.2567   1912.3271    427.3982     202802.6     197416.4 -13.2677 -13.2385      1.769   0  90 185.5002351 +65.6625636 -89.67    0.101
        31   2661.2461    449.3986   2661.2249    449.0589   2661.2271    449.1186     108866.2     110804.7 -12.5922 -12.6114      1.757   0  46 184.9895855 +65.6738621 -75.60    0.096
        32   2342.9504    471.2452   2342.9053    470.8951   2342.9198    471.5599      1307042      1064931 -15.2907 -15.0683      1.966   4  65 185.2049018 +65.6605541  87.64    0.123
        33    299.3888    477.8659    299.3636    477.5069    299.3815    477.5879     131165.3     128096.8 -12.7945 -12.7688      1.766   0  92 186.5916326 +65.6052768 -78.21    0.098
        34   2098.3257    531.2276   2098.2723    530.9818   2098.2783    531.9402      2115261      1532791 -15.8134 -15.4637      2.409   4  84 185.3677266 +65.6380184  87.26    0.225
        35   1601.4584    525.6628   1601.5036    525.4965   1601.5066    525.5198     22951.17     24326.11 -10.9020 -10.9652      1.677   0  42 185.7054748 +65.6273883 -69.14    0.125
        36    410.2431    535.4021    410.2978    535.1730    410.3164    535.1685     26414.18     28859.34 -11.0546 -11.1507      1.719   0  44 186.5124848 +65.5924027 -69.99    0.142
        37   2038.5939    553.4248   2038.5908    553.0682   2038.6025    553.1595     148704.4     148003.3 -12.9308 -12.9257      1.756   0  83 185.4070007 +65.6303736 -75.60    0.106
        38     80.8054    562.1645     80.7444    561.7544     80.7758    561.9916     302421.1     294330.3 -13.7015 -13.6721      1.769   0  57 186.7335578 +65.5752408 -88.07    0.098
        39    626.7656    566.2433    626.7317    565.8343    626.7599    566.0088     219333.5     218357.8 -13.3528 -13.3479      1.750   0 101 186.3637105 +65.5899550 -84.87    0.108
        40   3004.4692    581.1967   3004.4202    580.7884   3004.4626    581.0723     421772.9     411177.3 -14.0627 -14.0351      1.801   0  46 184.7491474 +65.6443108 -89.74    0.091
        41   3054.1646    631.2956   3054.1241    631.1183   3054.1162    632.0286      2134855      1728085 -15.8234 -15.5939      2.482   4  94 184.7127923 +65.6313031  85.94    0.243
        42   2739.9624    608.9471   2739.9896    608.6891   2739.9923    608.7155      39386.3     40974.79 -11.4884 -11.5313      1.688   0  58 184.9274544 +65.6308647 -68.90    0.116
        43    900.9057    616.8459    900.8987    616.5779    900.9081    616.6132     60963.91     62691.07 -11.9627 -11.9930      1.662   0  41 186.1746232 +65.5834135 -67.20    0.110
        44   2227.8127    637.9067   2227.7674    637.4857   2227.8015    638.0877      1061814     890639.9 -15.0651 -14.8743      1.883   4 109 185.2736415 +65.6111783  88.28    0.105
        45   2956.4722    618.1916   2956.5008    618.0258   2956.5095    618.0218     16864.88     18299.39 -10.5675 -10.6561      1.722   0  76 184.7798528 +65.6329252 -47.70    0.077
        46   2465.1091    643.6611   2465.0639    643.2533   2465.0741    643.5027     364502.2     339342.6 -13.9043 -13.8266      1.790   0  73 185.1122348 +65.6150239  89.63    0.099
        47    713.5192    628.0495    713.5497    627.8457    713.5571    627.8379     21549.97     24074.82 -10.8336 -10.9539      1.672   0  35 186.3007488 +65.5750954 -68.31    0.119
        48   1339.9861    633.2526   1340.0221    633.1353   1340.0070    633.1239     13000.16     14230.98 -10.2849 -10.3831      1.652   0  45 185.8760806 +65.5905487 -74.28    0.097
        49    967.4147    705.1248    967.3565    704.7149    967.3988    704.9050     245269.3     237751.3 -13.4741 -13.4403      1.766   0 123 186.1237403 +65.5605166 -88.38    0.109
        50    687.8766    708.4939    687.8764    708.1894    687.8883    708.2164      65188.8     66482.96 -12.0354 -12.0568      1.711   0  42 186.3126309 +65.5518659 -69.10    0.114
        51   1278.2461    712.9675   1278.2472    712.6317   1278.2435    712.6802     92805.43     93028.11 -12.4189 -12.4215      1.716   0  60 185.9128275 +65.5666145 -71.93    0.109
        52   1005.1329    740.1924   1005.1644    739.9793   1005.1567    740.0115     34355.53     36024.21 -11.3400 -11.3915      1.650   0  40 186.0959086 +65.5517218 -64.03    0.137
        53   2770.5671    759.2415   2770.5369    758.9542   2770.5528    759.0104     75008.67     76933.22 -12.1878 -12.2153      1.726   0  45 184.8986584 +65.5893944 -72.54    0.091
        54   1587.7671    779.9979   1587.7299    779.6128   1587.7565    779.7426     138860.9     136467.1 -12.8565 -12.8376      1.728   0  41 185.6990684 +65.5558087 -77.60    0.096
        55     27.0196    791.7249     27.0431    791.5547     27.0300    791.5517     20314.96     21174.84 -10.7695 -10.8146      1.682   0  68 186.7532474 +65.5094303 -57.10    0.112
        56   2388.9309    805.8434   2388.8987    805.4860   2388.9209    805.5995     132885.5       129096 -12.8087 -12.7773      1.746   0  60 185.1548800 +65.5678342 -79.48    0.087
        57    277.4245    805.8584    277.4026    805.4699    277.4405    805.5973       151627     146867.2 -12.9519 -12.9173      1.795   0  80 186.5832209 +65.5128846 -78.23    0.118
        58   1108.2457    831.8420   1108.1933    831.4266   1108.2322    831.6800     520914.9     493795.3 -14.2919 -14.2339      1.780   0  56 186.0201917 +65.5288333  88.73    0.103
        59   1158.6780    815.5333   1158.6459    815.4547   1158.6203    815.4613     12666.04     13436.25 -10.2566 -10.3207      1.675   0  53 185.9871490 +65.5347420 -61.88    0.076
        60   2543.3943    819.7195   2543.4078    819.5884   2543.4113    819.5885     20414.99     21750.83 -10.7749 -10.8437      1.718   0  47 185.0494317 +65.5674355 -68.72    0.108
        61   1871.4227    858.4137   1871.4412    858.1663   1871.4515    858.1969     44748.84     46942.34 -11.6270 -11.6789      1.699   0  50 185.5023241 +65.5408833 -63.85    0.124
        62   1710.5786    881.0928   1710.5185    880.7013   1710.5701    881.1909      1044332     904601.4 -15.0471 -14.8911      1.871   4  69 185.6097899 +65.5305686  88.90    0.103
        63    933.7618    879.5638    933.7166    879.1481    933.7035    879.5817     610020.7     527400.2 -14.4634 -14.3054      1.778   4  61 186.1349738 +65.5107706 -89.16    0.107
        64   1521.6102    891.6685   1521.5630    891.2982   1521.5856    891.9792      1324541      1081800 -15.3052 -15.0854      1.990   4  61 185.7369365 +65.5228536  89.06    0.125
        65    202.4257    870.6060    202.4190    870.3123    202.4462    870.3430     68468.02     70266.72 -12.0887 -12.1169      1.770   0  55 186.6292339 +65.4925740 -66.99    0.113
        66    519.4781    870.3464    519.5050    870.1473    519.5265    870.1108     22458.16     24551.41 -10.8784 -10.9752      1.730   0  50 186.4153237 +65.5018201 -66.41    0.156
        67    794.4167    883.4910    794.4574    883.3047    794.4577    883.3087     19130.14     20544.73 -10.7043 -10.7818      1.700   0  70 186.2288189 +65.5058510 -65.50    0.126
        68   1850.7061    910.9647   1850.6722    910.7315   1850.6634    910.7673     37960.71     39278.64 -11.4483 -11.4854      1.661   0  58 185.5132153 +65.5256542 -71.58    0.107
        69    779.5312    927.7330    779.5691    927.5855    779.5636    927.5803     14492.95     16366.58 -10.4029 -10.5349      1.706   0  41 186.2359025 +65.4930561 -54.98    0.122
        70   1317.9771    949.1763   1317.9662    949.0008   1317.9482    949.0175     15513.13     16663.28 -10.4767 -10.5544      1.629   0  51 185.8709536 +65.5015073 -72.31    0.113
        71     52.0309    997.7451     52.0365    997.4220     52.0543    997.4924     82455.72     83365.51 -12.2906 -12.3025      1.772   0  74 186.7214858 +65.4525568 -69.69    0.120
        72   1550.0884   1011.3036   1550.1008   1011.1610   1550.0853   1011.1478     12521.59     13206.61 -10.2441 -10.3020      1.663   0  39 185.7103150 +65.4900663 -75.85    0.078
        73    836.1596   1078.2401    836.1609   1077.9100    836.1545   1077.9825     88855.62     89556.95 -12.3717 -12.3802      1.721   0  72 186.1876676 +65.4524867 -75.67    0.123
        74   2716.6277   1080.0751   2716.6343   1079.7807   2716.6324   1079.8327     61404.27     62823.76 -11.9705 -11.9953      1.721   0  68 184.9181367 +65.4982681 -72.43    0.116
        75   2347.5542   1086.9249   2347.5786   1086.7647   2347.5762   1086.7673     25798.24     28457.76 -11.0290 -11.1355      1.679   0  41 185.1671980 +65.4881020 -69.60    0.097
        76    312.9223   1097.2300    312.9128   1097.0051    312.9151   1097.0275      32338.9     33830.01 -11.2743 -11.3233      1.723   0  29 186.5387709 +65.4324017 -65.24    0.148
        77   2540.4614   1120.2290   2540.4147   1119.8157   2540.4554   1120.1348     459756.8     450405.7 -14.1563 -14.1340      1.796   0  44 185.0350332 +65.4831265 -89.92    0.094
        78   2765.6140   1137.8116   2765.5946   1137.4683   2765.6089   1137.6053     152657.3     149246.2 -12.9593 -12.9348      1.748   0  47 184.8819747 +65.4831428 -80.62    0.101
        79   1297.7128   1137.0343   1297.8033   1136.8608   1297.7921   1136.8494     16917.82     18023.82 -10.5709 -10.6396      1.679   0  53 185.8727642 +65.4483693 -56.14    0.121
        80   2127.9866   1160.2828   2127.9487   1159.9107   2127.9549   1160.0506     155347.1       157264 -12.9783 -12.9916      1.724   0  74 185.3113244 +65.4624426 -83.83    0.091
        81   2906.9236   1191.1797   2906.9445   1190.9486   2906.9375   1190.9802     29999.79     31518.78 -11.1928 -11.2464      1.683   0  52 184.7837341 +65.4712030 -67.73    0.112
        82   2837.8533   1198.6910   2837.8313   1198.3929   2837.8369   1198.4502     55444.55      56423.7 -11.8596 -11.8787      1.732   0  55 184.8299891 +65.4676260 -70.27    0.099
        83   3016.2812   1200.4456   3016.2687   1200.1650   3016.2696   1200.2069     70196.91     71596.55 -12.1158 -12.1372      1.721   0  67 184.7094014 +65.4709035 -76.54    0.103
        84   2973.4912   1203.1521   2973.4600   1202.9956   2973.4699   1203.0139     19355.57     20816.47 -10.7170 -10.7960      1.689   0  64 184.7381621 +65.4692493 -59.94    0.083
        85   2706.4990   1213.2981   2706.5274   1213.1941   2706.5285   1213.1822     13643.25     15650.36 -10.3373 -10.4863      1.705   0  57 184.9179073 +65.4606940 -54.17    0.127
        86   1223.0312   1220.0808   1223.0485   1219.9078   1223.0346   1219.8931     13743.18     16351.32 -10.3452 -10.5339      1.627   0  47 185.9178265 +65.4231591 -70.18    0.136
        87   1202.4205   1231.4766   1202.4392   1231.1759   1202.4553   1231.1995     50151.22     52669.69 -11.7507 -11.8039      1.735   0  42 185.9309810 +65.4194262 -69.97    0.126
        88    516.0744   1239.1091    516.0743   1238.7844    516.0780   1238.8456     86908.21     87414.91 -12.3477 -12.3540      1.735   0  66 186.3922809 +65.3985289 -71.60    0.139
        89    971.6766   1257.6055    971.6416   1257.2323    971.6718   1257.3747     162875.6     158103.4 -13.0296 -12.9974      1.785   0  61 186.0846079 +65.4059606 -78.79    0.114
        90   2565.0725   1256.5923   2565.1119   1256.5122   2565.1113   1256.5390     55743.34     57006.54 -11.8655 -11.8898      1.639   3  48 185.0110328 +65.4454444 -46.79    0.088
        91   2566.5623   1263.2179   2566.6477   1263.1914   2566.6431   1263.2098     34300.65     39264.01 -11.3383 -11.4850      1.940   3  32 185.0096702 +65.4436199  78.47    0.098
        92   1719.8744   1287.3217   1719.8748   1287.0179   1719.8714   1287.0622     58140.12     59730.12 -11.9112 -11.9405      1.691   0  91 185.5790517 +65.4169909 -67.62    0.102
        93   2073.0381   1291.6198   2073.0737   1291.4125   2073.0670   1291.4291     25402.01     26689.53 -11.0122 -11.0659      1.662   0  41 185.3408559 +65.4243368 -56.70    0.108
        94    639.2059   1295.0625    639.2343   1294.8212    639.2260   1294.8428     32902.02     34220.02 -11.2931 -11.3357      1.690   0  74 186.3057041 +65.3863375 -67.33    0.138
        95   1749.8973   1321.6222   1749.9056   1321.3320   1749.9094   1321.3892     70426.58     71421.19 -12.1193 -12.1346      1.710   0  59 185.5567820 +65.4081218 -69.35    0.101
        96   1372.8812   1333.8350   1372.8923   1333.5958   1372.8983   1333.5961     39877.95     42675.42 -11.5018 -11.5754      1.680   0  46 185.8098050 +65.3951973 -69.85    0.123
        97   2286.1311   1354.6956   2286.1333   1354.4956   2286.1245   1354.4993     21074.61     22480.53 -10.8094 -10.8795      1.665   0  37 185.1937000 +65.4116340 -60.07    0.127
        98   2331.5315   1378.0585   2331.4927   1377.6746   2331.5367   1377.9326     353329.3     341230.6 -13.8704 -13.8326      1.720   0  53 185.1618166 +65.4061273  87.81    0.100
        99    681.5743   1377.5797    681.5460   1377.4985    681.5362   1377.5109     14575.01        15257 -10.4090 -10.4587      1.716   0  58 186.2716862 +65.3644231 -54.25    0.099
       100   2985.2634   1379.5851   2985.2222   1379.4966   2985.2237   1379.5009     11394.76     13111.25 -10.1418 -10.2941      1.701   0  39 184.7212216 +65.4200171 -48.10    0.094
       101   2882.1243   1423.3667   2882.0944   1423.2430   2882.0781   1423.2376     15825.05     17088.38 -10.4984 -10.5818      1.687   0  44 184.7884854 +65.4055661 -59.59    0.095
       102   1424.3960   1430.5880   1424.4402   1430.5074   1424.4386   1430.5172     11110.88     13329.76 -10.1144 -10.3121      1.670   0  34 185.7691593 +65.3694193 -46.08    0.110
       103   2619.4319   1447.7183   2619.4150   1447.4457   2619.4259   1447.4873     47902.91     49636.95 -11.7009 -11.7395      1.726   0  48 184.9641374 +65.3930602 -78.13    0.095
       104    676.4072   1447.1644    676.4284   1446.8879    676.4563   1446.8781     43938.83      46780.5 -11.6071 -11.6752      1.719   0  41 186.2704903 +65.3448020 -63.24    0.106
       105   2649.6687   1458.5288   2649.6195   1458.1368   2649.6442   1458.3829       228733     213182.9 -13.3983 -13.3219      1.769   0  44 184.9432031 +65.3906932  89.65    0.089
       106   1576.7791   1453.5703   1576.7670   1453.3809   1576.7702   1453.3959     30594.61     33965.49 -11.2141 -11.3276      1.660   0  47 185.6653172 +65.3668457 -62.04    0.100
       107   2946.2271   1564.9236   2946.2643   1565.3323   2946.4916   1565.7278 1.023150e+07      9941452 -17.5248 -17.4936      6.554   4  70 184.7380793 +65.3672222  85.73    0.791
       108   1459.1636   1456.0863   1459.1519   1455.9214   1459.1702   1455.8987     17107.06     19294.82 -10.5829 -10.7136      1.665   0  49 185.7442189 +65.3631645 -61.53    0.103
       109   1148.1580   1480.9324   1148.1526   1480.7709   1148.1487   1480.7853     19179.23     20377.61 -10.7071 -10.7729      1.637   0  45 185.9515945 +65.3481374 -75.35    0.132
       110    978.7473   1486.4205    978.7356   1486.1111    978.7442   1486.1640     64809.29      65426.3 -12.0291 -12.0394      1.729   0  41 186.0649797 +65.3420850 -70.91    0.118
       111   1908.8019   1490.5690   1908.7880   1490.5009   1908.7694   1490.5041     13311.67     15489.02 -10.3106 -10.4751      1.674   0  42 185.4398992 +65.3646562 -66.63    0.107
       112   2644.9797   1494.0798   2644.9853   1493.9189   2644.9713   1493.9339     19916.58     21623.37 -10.7480 -10.8373      1.636   0  29 184.9444709 +65.3806224 -50.64    0.114
       113   1665.1322   1507.3833   1665.1173   1507.2618   1665.1065   1507.2604     14039.84     14614.35 -10.3684 -10.4119      1.643   0  41 185.6026890 +65.3539772 -57.89    0.117
       114   1246.6392   1510.1978   1246.7013   1509.9982   1246.6918   1509.9948     16022.66     18983.92 -10.5118 -10.6960      1.663   0  46 185.8836161 +65.3425267 -56.55    0.111
       115   1361.8087   1530.5582   1361.7666   1530.1661   1361.7713   1530.4385     280426.2     258224.6 -13.6195 -13.5300      1.773   0  70 185.8050158 +65.3398100 -87.20    0.111
       116    508.1724   1539.6151    508.1228   1539.2055    508.1460   1539.4975     300442.2     275566.4 -13.6944 -13.6006      1.815   0  52 186.3770757 +65.3142064 -83.18    0.105
       117    584.0771   1530.6340    584.0349   1530.4964    584.0340   1530.4863     18358.52     19998.65 -10.6596 -10.7525      1.691   0  47 186.3268053 +65.3188590 -73.47    0.148
       118    639.5869   1537.8500    639.5742   1537.5488    639.5861   1537.6030     73230.46     74234.85 -12.1617 -12.1765      1.762   0  37 186.2891055 +65.3183928 -73.93    0.118
       119   1507.7080   1534.6610   1507.7606   1534.5664   1507.7535   1534.5548     16498.61     18839.76 -10.5436 -10.6877      1.717   0  46 185.7067911 +65.3423861 -59.83    0.129
       120   2452.3098   1565.3452   2452.3612   1565.1139   2452.3741   1565.1226     28588.66     30332.02 -11.1405 -11.2048      1.698   0  51 185.0702488 +65.3563641 -68.74    0.116
       121   2763.4346   1572.2057   2763.4323   1571.9636   2763.4643   1571.9684      38861.3     41333.43 -11.4738 -11.5408      1.692   0  18 184.8606609 +65.3612908 -69.60    0.070
       122    931.5359   1588.3010    931.5879   1588.1941    931.5817   1588.1838      13425.3     15207.88 -10.3198 -10.4552      1.684   0  37 186.0900379 +65.3122861 -57.92    0.137
       123    968.9647   1596.1562    968.9715   1595.9132    968.9669   1595.9508     32038.44     33359.45 -11.2642 -11.3080      1.642   0  68 186.0644338 +65.3110958 -68.95    0.147
       124     38.8486   1607.4045     38.8261   1607.0677     38.8407   1607.1398     72833.62     74586.63 -12.1558 -12.1817      1.796   0  55 186.6866326 +65.2816396 -71.12    0.114
       125   2507.5127   1602.1228   2507.5255   1601.8644   2507.5367   1601.8903     35500.64     38534.22 -11.3756 -11.4646      1.662   0  35 185.0311458 +65.3472897 -65.50    0.091
       126   2133.5847   1624.3098   2133.5925   1624.0556   2133.5921   1624.0932     52829.06     55341.11 -11.8072 -11.8576      1.719   0  48 185.2811651 +65.3325184 -64.21    0.105
       127   2606.9106   1641.0090   2606.8714   1640.7283   2606.8770   1640.7633     47817.66     49582.09 -11.6990 -11.7383      1.695   0  43 184.9622610 +65.3385897 -76.18    0.064
       128    179.0539   1652.9580    179.1037   1652.7734    179.0892   1652.7861     22660.85     23788.84 -10.8882 -10.9409      1.674   0  46 186.5896120 +65.2730256 -62.98    0.122
       129    166.5860   1690.4501    166.5487   1690.1483    166.5726   1690.1965     77692.57     78122.99 -12.2259 -12.2319      1.781   0  74 186.5953174 +65.2621725 -72.61    0.106
       130    695.6604   1720.8484    695.6176   1720.4670    695.6235   1720.6457     196193.7     189110.6 -13.2317 -13.1918      1.782   0  57 186.2393223 +65.2687274 -84.02    0.103
       131   1397.0420   1728.6165   1397.0455   1728.3952   1397.0435   1728.4017     20151.06     21333.07 -10.7607 -10.8226      1.670   0  56 185.7691406 +65.2852358 -61.33    0.132
       132   1621.7133   1777.4005   1621.7811   1777.2748   1621.7637   1777.2709     16273.74     18385.43 -10.5287 -10.6612      1.693   0  44 185.6156359 +65.2772433 -60.47    0.079
       133   2739.8508   1801.0304   2739.8289   1800.7820   2739.8379   1800.8334     38697.09     39941.62 -11.4692 -11.5036      1.660   0  47 184.8645739 +65.2966175 -73.42    0.109
       134   2515.7998   1830.8123   2515.8095   1830.6032   2515.7992   1830.6250     20408.19     21406.05 -10.7745 -10.8263      1.666   0  50 185.0132834 +65.2833571 -62.65    0.104
       135    850.1816   1839.2825    850.1816   1838.9824    850.1761   1839.0386     53892.86     54934.77 -11.8288 -11.8496      1.731   0  38 186.1281651 +65.2398107 -72.89    0.119
       136    315.5018   1876.4938    315.4279   1876.0921    315.5021   1876.4284     397494.8       366672 -13.9983 -13.9107      1.834   0  55 186.4828794 +65.2144408 -87.72    0.104
       137   1614.8655   1908.2487   1614.8866   1908.0917   1614.8782   1908.1070     22744.76     23987.11 -10.8922 -10.9499      1.626   0  39 185.6123902 +65.2404111 -49.79    0.096
       138    773.9364   1908.7671    773.9728   1908.6661    773.9781   1908.6360     15030.25     16665.94 -10.4424 -10.5546      1.666   0  40 186.1745729 +65.2182768 -78.66    0.203
       139   2722.6250   1913.0409   2722.6471   1912.9494   2722.6374   1912.9435     12865.94     13802.02 -10.2736 -10.3499      1.729   0  47 184.8702918 +65.2648365 -40.22    0.083
       140     80.4558   1964.9324     80.3788   1964.5272     80.4339   1965.0379     820911.1     687950.1 -14.7857 -14.5939      1.829   4  77 186.6335101 +65.1828634  89.23    0.101
       141   2409.6814   1977.8748   2409.6114   1977.4913   2409.6417   1977.8480     736075.9     685950.6 -14.6673 -14.5907      1.777   4  49 185.0764581 +65.2397497  87.27    0.095
       142   1510.4510   2021.8889   1510.4080   2021.4833   1510.4237   2021.9894     729163.4     624277.9 -14.6571 -14.4884      1.788   4  94 185.6753801 +65.2059566  89.68    0.102
       143    710.0573   2049.1108    710.0199   2048.7289    710.0199   2048.9653     185948.9     182153.3 -13.1735 -13.1511      1.766   0  49 186.2079790 +65.1772338 -83.72    0.112
       144   2869.5701   2043.6299   2869.5441   2043.4029   2869.5476   2043.4274     28817.21      30400.6 -11.1491 -11.2072      1.705   0  60 184.7651531 +65.2313587 -66.83    0.101
       145   2822.3418   2072.8669   2822.2929   2072.6256   2822.3888   2073.3558      1787211      1554911 -15.6304 -15.4793      2.289   4  92 184.7952673 +65.2221572  85.82    0.203
       146   2565.9438   2061.6594   2565.9267   2061.3656   2565.9447   2061.4379     63089.03     63745.08 -11.9999 -12.0111      1.711   0  52 184.9673953 +65.2197424 -70.44    0.108
       147   1882.3611   2074.0442   1882.3479   2073.7538   1882.3530   2073.8114     50407.34     51766.05 -11.7562 -11.7851      1.691   0  46 185.4237824 +65.2005025 -71.08    0.090
       148   1577.6639   2949.0178   1577.6443   2948.9289   1577.6303   2948.9310     11280.74     11905.65 -10.1308 -10.1894      1.686   0  37 185.5755071 +64.9478453 -67.09    0.064
       149   2803.7261   3072.4758   2803.7284   3072.2524   2803.7221   3072.2654     26103.39     27235.93 -11.0417 -11.0879      1.700  16  35 184.7569636 +64.9414097 -72.38    0.111
       150   2852.4824   3039.6899   2852.4244   3039.3380   2852.4734   3039.5525     261940.3     252532.6 -13.5455 -13.5058      1.749   0  46 184.7263112 +64.9516378  89.25    0.105
       151   1549.1758   2999.4187   1549.1101   2999.1092   1549.1478   2999.7206      1262869     946948.7 -15.2534 -14.9408      2.000   4  68 185.5913957 +64.9330136  88.35    0.129
       152    576.8061   2991.4351    576.8073   2991.2944    576.7984   2991.2989     19070.74     19977.46 -10.7009 -10.7514      1.731   0  37 186.2344814 +64.9097697 -53.54    0.114
       153    758.1348   2990.0933    758.1548   2989.9321    758.1456   2989.9098     12724.25     15429.36 -10.2616 -10.4709      1.695   0  76 186.1148385 +64.9151007 -59.86    0.124
       154   1272.7449   2963.5613   1272.7150   2963.2409   1272.7251   2963.3681      85093.9     83090.08 -12.3247 -12.2989      1.791   0  56 185.7763832 +64.9360901 -77.40    0.110
       155   2355.3020   2958.6260   2355.2688   2958.4243   2355.2706   2958.4385     24178.46     25594.34 -10.9586 -11.0204      1.709   0  41 185.0599373 +64.9635343 -74.79    0.088
       156   1532.9973   2949.4607   1533.0466   2949.3433   1533.0356   2949.3368     12633.61     14153.89 -10.2538 -10.3772      1.696   0  37 185.6050438 +64.9466127 -76.59    0.143
       157   2579.1768   2940.1401   2579.2012   2940.0152   2579.2128   2940.0060     12699.65     13882.71 -10.2595 -10.3562      1.612   0  32 184.9125186 +64.9736893 -61.71    0.113
       158   2408.2192   2912.0364   2408.1676   2911.7071   2408.1768   2911.8216     133135.9     131849.7 -12.8107 -12.8002      1.692   0  65 185.0273419 +64.9777876 -83.87    0.097
       159   1705.5682   2666.8850   1705.5248   2666.5248   1705.5366   2666.7018     190816.4     184689.6 -13.2015 -13.1661      1.752   0  42 185.5072014 +65.0300637 -89.39    0.104
       160   1436.0883   2661.0757   1436.0789   2660.8039   1436.0703   2660.8657      41295.1     42513.08 -11.5397 -11.5713      1.675   0  45 185.6864317 +65.0249960 -77.90    0.117
       161    813.3055   2607.2581    813.3707   2607.1624    813.3782   2607.1385     10796.89     12219.34 -10.0832 -10.2176      1.725   0  30 186.1029552 +65.0237891 -61.71    0.179
       162    234.8293   2536.4202    234.8211   2536.2162    234.8211   2536.2386     30752.56     32016.53 -11.2197 -11.2634      1.732   0  38 186.4911856 +65.0274797 -71.11    0.121
       163   2419.4680   2482.3125   2419.4663   2482.0699   2419.4792   2482.0990     39691.58     41626.55 -11.4967 -11.5484      1.700   0  41 185.0427701 +65.0985386 -66.71    0.098
       164    314.2486   2678.7002    314.2007   2678.5345    314.2026   2678.5226     17463.16     19001.19 -10.6053 -10.6970      1.732   0  42 186.4288840 +64.9899412 -74.00    0.140
       165    730.1724   2559.6438    730.1858   2559.4094    730.1808   2559.4184     25580.54     26757.36 -11.0198 -11.0686      1.713   0  43 186.1611774 +65.0348610 -65.64    0.147
       166   2931.0034   2522.7368   2931.0576   2522.6477   2931.0559   2522.6279     12109.78     14140.06 -10.2078 -10.3761      1.668   0  37 184.6999782 +65.0982848 -63.18    0.096
       167   1555.5619   2638.0608   1555.5273   2637.7320   1555.5398   2637.8375      89885.8     90589.41 -12.3842 -12.3927      1.753   0  35 185.6084940 +65.0344398 -79.96    0.117
       168   2003.6954   2696.4761   2003.6681   2696.3702   2003.6533   2696.3730     12146.71     12852.39 -10.2111 -10.2725      1.677   0  53 185.3075425 +65.0289308 -67.65    0.074
       169   3060.3940   2711.1675   3060.3901   2710.8231   3060.4381   2711.1570     688121.8     666448.6 -14.5942 -14.5594      1.781  16  70 184.6045617 +65.0481137  69.70    0.063
       170    829.4428   2776.0459    829.4870   2775.8545    829.4967   2775.8338     15034.54     16863.56 -10.4427 -10.5674      1.680   0  30 186.0814217 +64.9769630 -64.25    0.129
       171   1600.3790   2503.3440   1600.3977   2503.2737   1600.3983   2503.2710     14248.98     14968.51 -10.3845 -10.4379      1.683   0  30 185.5866844 +65.0733040 -54.15    0.102
       172   1727.1952   2491.8342   1727.1634   2491.6802   1727.1712   2491.6532     16019.97     18131.01 -10.5117 -10.6461      1.690   0  38 185.5030166 +65.0796515 -66.58    0.095
       173   2354.6240   2771.1909   2354.5681   2770.8279   2354.6020   2771.3107      1061522     956805.6 -15.0648 -14.9521      1.909   4  69 185.0704171 +65.0160795  87.44    0.113
       174   1077.3556   2400.3257   1077.3707   2400.1750   1077.3803   2400.1635     17728.46     20173.56 -10.6217 -10.7620      1.738   0  43 185.9407678 +65.0887876 -57.26    0.121
       175    475.2125   2427.2080    475.1835   2427.0167    475.1686   2427.0276     16598.69     18144.45 -10.5502 -10.6469      1.775   0  26 186.3391269 +65.0648707 -57.01    0.133
       176    683.1845   2206.0872    683.2128   2205.9402    683.1998   2205.9711     20072.89     20814.29 -10.7565 -10.7959      1.692   0  38 186.2155446 +65.1325501 -63.41    0.133
       177   2816.3096   2736.1428   2816.2896   2735.9685   2816.2893   2735.9834     14108.44     15163.57 -10.3737 -10.4520      1.638   0  60 184.7655648 +65.0360148 -54.85    0.091
       178   2200.8076   2363.8369   2200.7799   2363.5955   2200.7759   2363.6261     37656.31     38693.77 -11.4396 -11.4691      1.671   0  34 185.1948947 +65.1267812 -72.22    0.092
       179   3069.4194   2855.6787   3069.5930   2855.3736   3069.5950   2855.5022     168563.7     178187.4 -13.0669 -13.1272      1.685  24  62 184.5915157 +65.0077628 -79.80    0.202
       180   1680.4431   2996.5667   1680.4379   2996.3342   1680.4393   2996.4042     41633.29     45015.64 -11.5486 -11.6334      1.793   0  32 185.5047163 +64.9370466 -74.70    0.148
       181   1408.2236   2424.1389   1408.2489   2423.9274   1408.2606   2423.9356        29432     32263.31 -11.1720 -11.2718      1.689   0  35 185.7192274 +65.0906753 -72.14    0.145
       182   1330.2786   2293.7031   1330.2731   2293.5734   1330.2780   2293.5696     13641.36     15187.69 -10.3371 -10.4537      1.649   0  25 185.7790537 +65.1252284 -57.24    0.112
       183    539.6166   3006.7446    539.5419   3006.3329    539.5786   3006.6142     410576.5     388389.2 -14.0335 -13.9732      1.872   0  73 186.2580237 +64.9044562 -85.62    0.114
       184   1680.7504   2300.8464   1680.7287   2300.4952   1680.7373   2300.5986     96871.27      95931.7 -12.4655 -12.4549      1.729   0  76 185.5451171 +65.1320344 -78.50    0.113
       185    442.9538   2429.0061    442.9322   2428.6660    442.9511   2428.7758     107997.1       106404 -12.5835 -12.5674      1.769   0  65 186.3604227 +65.0634599 -80.14    0.107
       186    438.7917   2808.1306    438.8388   2807.9593    438.8186   2807.9641     15370.47     17063.39 -10.4667 -10.5802      1.646   0  32 186.3377862 +64.9572392 -59.93    0.116
       187   2900.0146   2277.9641   2899.9903   2277.6595   2900.0070   2277.7205     79666.21     80205.59 -12.2532 -12.2605      1.677   0  49 184.7329290 +65.1662834 -77.65    0.090
       188   1887.5679   2277.5200   1887.6047   2277.3585   1887.6014   2277.3589     17290.42     20151.04 -10.5945 -10.7607      1.697   0  44 185.4085960 +65.1436006 -62.73    0.125
       189   2184.1519   2444.2720   2184.1369   2444.0778   2184.1217   2444.0962     22309.56     23399.83 -10.8712 -10.9230      1.667   0  53 185.2015567 +65.1038471 -69.76    0.054
       190   1369.1666   2161.2556   1369.1798   2161.1328   1369.1786   2161.1254     13609.03     15513.18 -10.3346 -10.4768      1.651   0  46 185.7612370 +65.1633274 -69.64    0.116
       191    552.5717   2211.7788    552.5124   2211.3927    552.5440   2211.5783     205823.8     198768.3 -13.2837 -13.2459      1.825   0  64 186.3021122 +65.1273323 -85.17    0.111
       192   2499.3408   3066.1621   2499.3324   3065.9982   2499.3471   3065.9885      15318.1      17217.3 -10.4630 -10.5899      1.685   0  43 184.9588441 +64.9365888 -54.69    0.095
       193   2958.7959   2161.4258   2958.7719   2161.1874   2958.7713   2161.2290     40672.84     41970.85 -11.5233 -11.5574      1.696   0  36 184.6995137 +65.2001986 -80.08    0.089
       194   1602.6930   3010.5593   1602.6510   3010.3842   1602.6410   3010.4282     32328.03     33293.22 -11.2739 -11.3059      1.728   0  60 185.5553409 +64.9312154 -70.09    0.129
       195   1849.9060   2111.9873   1849.8585   2111.5959   1849.8740   2111.9264     557990.3     530562.7 -14.3666 -14.3118      1.734   0  79 185.4432731 +65.1890859  88.84    0.099
       196   2948.0425   2085.5879   2948.0455   2085.3785   2948.0372   2085.3922     22881.22     23886.16 -10.8987 -10.9454      1.693   0  54 184.7105148 +65.2212428 -63.76    0.087
       197    490.7786   3003.3521    490.7265   3002.9731    490.7518   3003.1567     221172.1     211912.4 -13.3618 -13.3154      1.801   0  69 186.2904781 +64.9040505 -84.79    0.120
       198    100.8442   2092.5974    100.8045   2092.2446    100.8364   2092.3780     117159.1     114935.8 -12.6719 -12.6511      1.808   0  58 186.6109550 +65.1477512 -75.25    0.129
       199    641.5355   2088.9463    641.5097   2088.8604    641.5153   2088.8538     11439.43     12233.24 -10.1460 -10.2189      1.676   0  47 186.2510315 +65.1641896 -31.93    0.085
       200   2166.3647   2685.4890   2166.3026   2685.0979   2166.3232   2685.5391       636051     551413.8 -14.5087 -14.3537      1.795   4  57 185.2001032 +65.0358098  88.62    0.103
       201    547.6897   3039.3271    547.6153   3038.9470    547.6436   3039.5616      1095244     814456.9 -15.0988 -14.7772      1.941   4  72 186.2505551 +64.8955586  89.85    0.116
       202   1867.3933   2672.3616   1867.3868   2672.1932   1867.3961   2672.1912     17374.87     18179.38 -10.5998 -10.6489      1.650   0  40 185.3994267 +65.0324484 -64.49    0.071
       203    444.6193   2893.9148    444.6237   2893.8302    444.5928   2893.7041     86374.78     114225.7 -12.3410 -12.6444      5.242   0  32 186.3282165 +64.9333933 -44.27    0.017
       204   2266.4292   2939.0708   2266.4223   2938.7750   2266.4362   2938.8673     65413.52     66339.91 -12.0392 -12.0544      1.718   0  44 185.1198838 +64.9670049 -77.55    0.128
