#   1 NUMBER                 Running object number                                     
#   2 X_IMAGE                Object position along x                                    [pixel]
#   3 Y_IMAGE                Object position along y                                    [pixel]
#   4 XWIN_IMAGE             Windowed position estimate along x                         [pixel]
#   5 YWIN_IMAGE             Windowed position estimate along y                         [pixel]
#   6 XMODEL_IMAGE           X coordinate from model-fitting                            [pixel]
#   7 YMODEL_IMAGE           Y coordinate from model-fitting                            [pixel]
#   8 FLUX_AUTO              Flux within a Kron-like elliptical aperture                [count]
#   9 FLUX_MODEL             Flux from model-fitting                                    [count]
#  10 MAG_AUTO               Kron-like elliptical aperture magnitude                    [mag]
#  11 MAG_MODEL              Magnitude from model-fitting                               [mag]
#  12 FLUX_RADIUS            Fraction-of-light radii                                    [pixel]
#  13 FLAGS                  Extraction flags                                          
#  14 NITER_MODEL            Number of iterations for model-fitting                    
#  15 ALPHA_SKY              Right ascension of barycenter (native)                     [deg]
#  16 DELTA_SKY              Declination of barycenter (native)                         [deg]
#  17 THETA_WORLD            Position angle (CCW/world-x)                               [deg]
#  18 ELLIPTICITY            1 - B_IMAGE/A_IMAGE                                       
         1   1623.6838      9.6287   1623.6235      9.2128   1623.7246      9.8256      1126345     917093.7 -15.1292 -14.9060      1.988  20  73 185.7223882 +65.7724444 -89.58    0.105
         2    434.7685     64.4380    434.8224     64.2483    434.8203     64.2485     30478.05     32079.75 -11.2100 -11.2656      1.735   0  35 186.5290265 +65.7248453 -54.63    0.104
         3    250.5598     89.0365    250.4974     88.6312    250.5417     88.9343     411812.5     394648.6 -14.0367 -13.9905      1.801   0  89 186.6525940 +65.7125872 -86.96    0.098
         4   1572.9293    137.4418   1572.9223    137.1602   1572.9371    137.1949     85316.03     91361.91 -12.3276 -12.4019      1.706   0  46 185.7490205 +65.7353726 -64.04    0.104
         5    887.1135    140.0576    887.1127    139.9007    887.1059    139.9327     28834.42     30243.06 -11.1498 -11.2016      1.656   0  48 186.2159464 +65.7164637 -57.88    0.120
         6    908.3614    137.2063    908.3714    137.0730    908.3948    137.0668     22823.97     25861.01 -10.8960 -11.0316      1.680   0  50 186.2016762 +65.7178460 -48.51    0.104
         7   1188.2471    142.1286   1188.2146    142.0022   1188.2119    142.0211     21817.19     23295.69 -10.8470 -10.9182      1.652   0  49 186.0107937 +65.7240403 -44.38    0.104
         8   2923.1243    166.5956   2923.1740    166.3611   2923.1722    166.3809     43219.58     45281.05 -11.5892 -11.6398      1.712   0  46 184.8262227 +65.7588270 -52.73    0.096
         9    244.0558    205.3393    244.0238    204.9643    244.0427    205.0904     211155.9     208941.4 -13.3115 -13.3001      1.778   0  66 186.6486492 +65.6798734 -79.03    0.096
        10    562.3799    233.9993    562.4039    233.8519    562.4284    233.8404     24877.16     29354.46 -10.9895 -11.1692      1.727   0  49 186.4303523 +65.6810834 -66.85    0.119
        11    813.5858    277.9605    813.6324    277.7984    813.6316    277.8109     27565.06     31331.45 -11.1009 -11.2400      1.672   0  29 186.2566317 +65.6758463 -62.98    0.110
        12    254.1451    290.1359    254.1751    289.9953    254.1713    289.9960     17711.21     21612.47 -10.6206 -10.8368      1.669   0  35 186.6357123 +65.6564565 -58.70    0.120
        13   1930.7567    339.2702   1930.7097    338.9547   1930.6900    339.6126      1600861      1348124 -15.5109 -15.3243      2.112   4  85 185.4929879 +65.6877631  88.99    0.143
        14   2175.3223    318.5460   2175.3271    318.4426   2175.3379    318.4567     18361.87      22428.3 -10.6598 -10.8770      1.705   0  34 185.3277217 +65.6994300 -49.02    0.110
        15      3.0186    330.4894      2.9012    330.2959      2.8777    330.3199     44733.29     52654.25 -11.6266 -11.8036      1.626  24  44 186.8031465 +65.6376912 -80.93    0.137
        16     49.8629    334.3272     49.8552    334.1977     49.8452    334.1857     19853.61     21309.57 -10.7446 -10.8214      1.714   0  54 186.7711006 +65.6380277 -69.33    0.136
        17   2331.5239    338.7082   2331.5295    338.4954   2331.5303    338.5256     46559.96      48947.3 -11.6700 -11.7243      1.724   0  44 185.2201957 +65.6974297 -51.18    0.100
        18    242.5996    350.9437    242.5908    350.8593    242.5857    350.8542      16771.7     19787.42 -10.5614 -10.7410      1.676   0  35 186.6391871 +65.6391106 -28.17    0.080
        19   1081.0328    368.8717   1081.0626    368.7157   1081.0584    368.7489     40283.92     42208.44 -11.5128 -11.5635      1.641   0  34 186.0688612 +65.6577089 -52.47    0.134
        20   2459.8330    406.4032   2459.8049    406.0304   2459.8273    406.1945     382930.2     369612.9 -13.9578 -13.9194      1.798   0  67 185.1290285 +65.6814002 -86.50    0.113
        21   2433.2744    407.7055   2433.3100    407.4818   2433.3177    407.5197     50644.64     52419.86 -11.7613 -11.7987      1.715   0  47 185.1470315 +65.6804309 -65.17    0.117
        22   1665.6010    402.5787   1665.5922    402.4984   1665.5802    402.5188     22701.76     25614.69 -10.8901 -11.0212      1.673   0  33 185.6694943 +65.6634753 -50.27    0.097
        23   1912.3281    427.5836   1912.3056    427.2521   1912.3284    427.3502     201210.7     203595.6 -13.2591 -13.2719      1.729   0 128 185.5002481 +65.6625767 -81.04    0.090
        24   2661.2405    449.3503   2661.2249    449.0591   2661.2277    449.1176     108297.7     111148.7 -12.5865 -12.6148      1.759   0  69 184.9895920 +65.6738755 -72.88    0.091
        25   2342.9548    471.2443   2342.9053    470.8954   2342.9180    471.5840      1306083      1068800 -15.2899 -15.0722      1.970   4  86 185.2048989 +65.6605544  87.79    0.122
        26    299.3955    477.8365    299.3636    477.5061    299.3880    477.5800     129722.7     128294.8 -12.7825 -12.7705      1.759   0  43 186.5916301 +65.6052852 -71.13    0.102
        27   2098.3240    531.2257   2098.2723    530.9813   2098.2801    531.9430      2113446      1531318 -15.8125 -15.4627      2.403   4  93 185.3677279 +65.6380189  87.51    0.227
        28   1601.5109    525.6103   1601.5036    525.4959   1601.5082    525.5177     22839.54      24487.3 -10.8967 -10.9724      1.672   0  48 185.7054424 +65.6274044 -48.76    0.125
        29    410.2820    535.3063    410.2978    535.1715    410.3156    535.1768     26350.63     28645.99 -11.0520 -11.1427      1.708   0  48 186.5124652 +65.5924306 -52.11    0.129
        30   2038.6031    553.3984   2038.5909    553.0661   2038.6062    553.1539       147927     149380.7 -12.9251 -12.9357      1.739   0  61 185.4069960 +65.6303813 -76.39    0.112
        31     80.7925    562.1352     80.7444    561.7543     80.7754    561.9923     302359.7     293767.6 -13.7013 -13.6700      1.769   0  55 186.7335687 +65.5752486 -83.61    0.093
        32    626.7614    566.2208    626.7317    565.8330    626.7575    566.0141     218664.2     217555.7 -13.3494 -13.3439      1.740   0  94 186.3637149 +65.5899611 -79.26    0.105
        33   3004.4702    581.1859   3004.4202    580.7879   3004.4632    581.0709     420490.3     410733.7 -14.0594 -14.0339      1.797   0  38 184.7491472 +65.6443138 -88.66    0.099
        34   3054.1655    631.2953   3054.1241    631.1182   3054.1161    632.0225      2134036      1709212 -15.8230 -15.5820      2.479   4  90 184.7127916 +65.6313032  86.08    0.245
        35   2739.9834    608.8512   2739.9896    608.6859   2739.9928    608.7171     39140.72     40916.81 -11.4816 -11.5298      1.663   0  65 184.9274454 +65.6308921 -51.76    0.121
        36    900.8834    616.8204    900.8987    616.5767    900.9125    616.5907     60553.52     64972.84 -11.9553 -12.0318      1.652   0  41 186.1746401 +65.5834201 -71.05    0.127
        37   2227.8123    637.9044   2227.7674    637.4860   2227.8016    638.0962      1060772     890459.3 -15.0641 -14.8740      1.885   4  84 185.2736419 +65.6111790  89.29    0.107
        38   2956.5312    618.0830   2956.5008    618.0236   2956.5078    618.0253     16768.54     18098.79 -10.5612 -10.6441      1.704   0  33 184.7798183 +65.6329569 -41.44    0.079
        39    713.4803    628.0656    713.5498    627.8447    713.5567    627.8422     21511.65     23731.85 -10.8317 -10.9383      1.665   0  33 186.3007741 +65.5750898 -54.89    0.100
        40   2465.1035    643.6467   2465.0639    643.2518   2465.0811    643.4019       363415     362061.4 -13.9010 -13.8970      1.778   0  93 185.1122394 +65.6150278 -87.21    0.091
        41    967.3896    705.0985    967.3565    704.7130    967.4012    704.9483     243913.7     236890.5 -13.4681 -13.4364      1.751   0  33 186.1237590 +65.5605233 -83.36    0.110
        42    687.8724    708.4541    687.8765    708.1888    687.8888    708.2170     64633.29     66632.77 -12.0261 -12.0592      1.706   0  75 186.3126365 +65.5518769 -71.45    0.149
        43   1278.2443    712.8817   1278.2475    712.6284   1278.2507    712.6677     92167.78     93207.98 -12.4114 -12.4236      1.690   0  44 185.9128343 +65.5666385 -67.90    0.119
        44   1005.1379    740.1015   1005.1645    739.9766   1005.1575    740.0111     34354.34     35849.08 -11.3400 -11.3862      1.626   0  30 186.0959112 +65.5517474 -68.70    0.089
        45   2770.5513    759.1918   2770.5366    758.9518   2770.5546    759.0126     74520.48      77051.3 -12.1807 -12.2169      1.704   0  39 184.8986718 +65.5894079 -60.33    0.081
        46   1587.7474    779.9459   1587.7299    779.6117   1587.7636    779.7094     137801.3     136653.3 -12.8481 -12.8391      1.719   0  33 185.6990849 +65.5558228 -73.66    0.113
        47     27.0293    791.6093     27.0431    791.5528     27.0300    791.5508     20277.58     21257.25 -10.7675 -10.8188      1.667   0  45 186.7532492 +65.5094630 -69.42    0.097
        48   2388.9084    805.8078   2388.8987    805.4840   2388.9286    805.5776     132145.6     129990.7 -12.8026 -12.7848      1.731   0  67 185.1548971 +65.5678436 -74.26    0.099
        49    277.4244    805.8207    277.4026    805.4687    277.4387    805.6041     151145.6     146472.3 -12.9485 -12.9144      1.785   0  54 186.5832236 +65.5128952 -73.22    0.099
        50   1108.2372    831.8370   1108.1933    831.4275   1108.2206    831.7042     519282.9     494225.6 -14.2885 -14.2348      1.788   0  37 186.0201977 +65.5288345 -88.45    0.102
        51   2543.4346    819.6854   2543.4078    819.5873   2543.4107    819.5883     20305.69     21841.39 -10.7690 -10.8482      1.708   0  40 185.0494062 +65.5674460 -38.99    0.033
        52   1871.4213    858.3862   1871.4412    858.1664   1871.4509    858.1986     44749.32     46825.08 -11.6270 -11.6762      1.700   0  53 185.5023268 +65.5408910 -61.01    0.116
        53   1710.5781    881.0873   1710.5185    880.7016   1710.5325    881.1779      1043299     955692.2 -15.0460 -14.9508      1.874   4  14 185.6097906 +65.5305701  89.31    0.110
        54    933.7634    879.5602    933.7166    879.1482    933.7026    879.5781     609422.1     526792.8 -14.4623 -14.3041      1.778   4  64 186.1349730 +65.5107717 -88.27    0.109
        55    202.3874    870.5796    202.4190    870.3106    202.4481    870.3479     68246.02     69968.28 -12.0852 -12.1123      1.758   0  38 186.6292616 +65.4925803 -64.30    0.156
        56   1521.6075    891.6629   1521.5630    891.2982   1521.5743    891.9497      1321801      1093350 -15.3029 -15.0969      1.990   4  62 185.7369386 +65.5228551  89.23    0.122
        57    519.4515    870.2584    519.5050    870.1437    519.5175    870.1335     22378.68      25231.3 -10.8746 -11.0048      1.703   0  40 186.4153478 +65.5018440 -54.01    0.108
        58    794.4424    883.3763    794.4578    883.3025    794.4631    883.3034     19049.55        21436 -10.6997 -10.8279      1.681   0  45 186.2288093 +65.5058838 -55.45    0.134
        59   1850.6670    910.9015   1850.6722    910.7309   1850.6638    910.7594     37797.46     39518.79 -11.4437 -11.4920      1.657   0  68 185.5132454 +65.5256709 -62.16    0.079
        60     52.0556    997.6848     52.0364    997.4181     52.0550    997.4961     81994.58     83075.29 -12.2845 -12.2987      1.742   0  50 186.7214735 +65.4525744 -64.50    0.140
        61    836.1627   1078.2120    836.1610   1077.9066    836.1543   1077.9870     87853.55     89541.75 -12.3594 -12.3801      1.695   0  69 186.1876673 +65.4524947 -71.25    0.129
        62   2716.6333   1080.0416   2716.6342   1079.7790   2716.6336   1079.8342     61167.75     63360.76 -11.9663 -12.0046      1.707   0  63 184.9181348 +65.4982776 -62.28    0.115
        63   2347.5298   1086.9180   2347.5786   1086.7647   2347.5692   1086.7722     25720.81     27426.06 -11.0257 -11.0954      1.679   0  48 185.1672149 +65.4881034 -61.78    0.130
        64    312.9164   1097.1727    312.9127   1097.0018    312.9151   1097.0245     32158.28     33891.56 -11.2682 -11.3252      1.698   0  31 186.5387789 +65.4324175 -56.50    0.144
        65   2540.4573   1120.2151   2540.4147   1119.8145   2540.4553   1120.1354     458475.1     450063.8 -14.1533 -14.1332      1.787   0  59 185.0350369 +65.4831303 -87.25    0.097
        66   2765.6345   1137.7960   2765.5947   1137.4688   2765.6079   1137.6087     152171.6     149552.8 -12.9558 -12.9370      1.752   0  56 184.8819616 +65.4831476 -76.68    0.099
        67   2127.9568   1160.2469   2127.9487   1159.9100   2127.9545   1160.0525     154757.5       156969 -12.9741 -12.9895      1.718   0  57 185.3113465 +65.4624519 -77.14    0.101
        68   2906.9441   1191.0726   2906.9442   1190.9451   2906.9410   1190.9813     29960.61     31930.55 -11.1914 -11.2605      1.654   0  33 184.7837258 +65.4712334 -58.24    0.104
        69   2837.8467   1198.6127   2837.8311   1198.3899   2837.8412   1198.4628     54625.63     56215.83 -11.8435 -11.8746      1.709   0  56 184.8299975 +65.4676479 -73.42    0.112
        70   3016.2876   1200.4117   3016.2686   1200.1638   3016.2693   1200.2111     69550.66     71784.47 -12.1058 -12.1401      1.710   0  57 184.7093989 +65.4709131 -70.44    0.091
        71   2973.4185   1203.1179   2973.4599   1202.9943   2973.4693   1203.0157     19334.88     20580.33 -10.7159 -10.7836      1.679   0  51 184.7382129 +65.4692573 -42.93    0.114
        72   1202.4235   1231.3953   1202.4392   1231.1732   1202.4546   1231.1979     49585.92     51940.57 -11.7384 -11.7888      1.714   0  49 185.9309842 +65.4194490 -65.92    0.119
        73    516.0899   1239.0616    516.0744   1238.7784    516.0778   1238.8496     86476.72     87662.89 -12.3422 -12.3570      1.688   0  43 186.3922737 +65.3985427 -71.58    0.134
        74    971.6685   1257.5802    971.6416   1257.2302    971.6723   1257.3663     162126.6     158211.8 -13.0246 -12.9981      1.769   0  64 186.0846151 +65.4059675 -79.33    0.135
        75   2565.1309   1256.6140   2565.1126   1256.5227   2565.1218   1256.5349     56322.35     60402.11 -11.8767 -11.9526      1.667   3  57 185.0109922 +65.4454396 -67.67    0.095
        76   2566.6306   1263.2117   2566.6524   1263.2006   2566.6471   1263.2098     33868.82     40228.83 -11.3245 -11.5113      1.898   3  43 185.0096243 +65.4436232 -69.07    0.065
        77   1719.8782   1287.2480   1719.8747   1287.0142   1719.8713   1287.0613     57395.92     59793.17 -11.8972 -11.9416      1.661   0  36 185.5790536 +65.4170116 -65.43    0.149
        78   2073.1013   1291.5280   2073.0737   1291.4116   2073.0694   1291.4273     25270.96     28511.36 -11.0066 -11.1375      1.655   0  56 185.3408186 +65.4243640 -69.56    0.060
        79    639.2371   1294.9504    639.2343   1294.8204    639.2240   1294.8483     32820.44     34394.31 -11.2904 -11.3412      1.684   0  39 186.3056907 +65.3863698 -69.00    0.134
        80   1749.9121   1321.5819   1749.9058   1321.3275   1749.9141   1321.4079     69602.73     70813.45 -12.1066 -12.1253      1.674   0  69 185.5567745 +65.4081335 -71.56    0.135
        81   1372.8966   1333.7612   1372.8923   1333.5934   1372.9058   1333.5960     39741.19     45283.41 -11.4981 -11.6398      1.660   0  31 185.8097992 +65.3952183 -56.51    0.108
        82   2286.1218   1354.5647   2286.1336   1354.4914   2286.1242   1354.5017     20895.13     23117.53 -10.8001 -10.9099      1.632   0  45 185.1937136 +65.4116705 -56.10    0.084
        83   2331.5361   1378.0380   2331.4926   1377.6734   2331.5369   1377.9249     352630.1     341621.1 -13.8683 -13.8339      1.711   0  90 185.1618147 +65.4061331  88.90    0.096
        84   2882.0349   1423.3191   2882.0940   1423.2385   2882.0779   1423.2410     15739.43     16762.85 -10.4925 -10.5609      1.654   0  29 184.7885480 +65.4055776 -74.30    0.092
        85    676.3937   1447.1062    676.4285   1446.8872    676.4532   1446.9073     43900.59     47195.36 -11.6062 -11.6847      1.714   0  25 186.2705032 +65.3448179 -69.46    0.146
        86   2619.4502   1447.6746   2619.4149   1447.4440   2619.4275   1447.4898     47489.24     49696.07 -11.6915 -11.7408      1.713   0  45 184.9641274 +65.3930729 -54.53    0.077
        87   2649.6501   1458.4928   2649.6196   1458.1379   2649.6439   1458.2810     227946.3     226453.7 -13.3946 -13.3874      1.777   0 136 184.9432174 +65.3907029 -85.72    0.094
        88   1576.7128   1453.5605   1576.7670   1453.3821   1576.7663   1453.3969     30429.23     34641.86 -11.2082 -11.3490      1.670   0  42 185.6653624 +65.3668467 -60.93    0.164
        89   2946.2280   1564.9243   2946.2643   1565.3323   2946.4981   1565.6952 1.023066e+07      9461462 -17.5248 -17.4399      6.553   4  94 184.7380786 +65.3672220  85.73    0.793
        90   1148.1106   1480.9678   1148.1526   1480.7718   1148.1449   1480.7963      19206.1     20238.67 -10.7086 -10.7655      1.644   0  56 185.9516241 +65.3481263 -58.56    0.160
        91    978.7352   1486.3318    978.7355   1486.1065    978.7454   1486.1633     64035.03     66060.61 -12.0160 -12.0499      1.693   0  62 186.0649936 +65.3421095 -71.92    0.117
        92   2644.9976   1494.0818   2644.9852   1493.9180   2644.9662   1493.9144     19988.85     23470.38 -10.7520 -10.9263      1.629   0  58 184.9444588 +65.3806223 -66.92    0.122
        93   1361.8066   1530.5474   1361.7666   1530.1649   1361.8071   1530.3307     279282.9     267895.7 -13.6151 -13.5699      1.764   0  59 185.8050178 +65.3398130 -85.14    0.106
        94    508.1761   1539.5917    508.1228   1539.2074    508.1454   1539.4953     299518.8     274537.9 -13.6911 -13.5965      1.829   0  59 186.3770747 +65.3142131 -81.53    0.115
        95    583.9977   1530.6018    584.0350   1530.4946    584.0310   1530.4979     18286.52     21647.26 -10.6553 -10.8385      1.677   0  42 186.3268607 +65.3188658 -67.16    0.147
        96    639.5503   1537.8160    639.5742   1537.5474    639.5893   1537.6013     72885.23     74007.21 -12.1566 -12.1732      1.751   0  41 186.2891324 +65.3184013 -68.87    0.135
        97   2452.3716   1565.3035   2452.3612   1565.1117   2452.3740   1565.1246     28539.02     30261.37 -11.1386 -11.2022      1.682   0  56 185.0702095 +65.3563771 -57.35    0.072
        98   2763.4167   1572.1611   2763.4322   1571.9607   2763.4437   1572.0178     38738.35     40389.83 -11.4704 -11.5157      1.670   0  55 184.8606752 +65.3613030 -74.81    0.124
        99    968.9555   1596.0587    968.9716   1595.9118    968.9687   1595.9522     31985.25     33372.52 -11.2624 -11.3085      1.631   0  41 186.0644463 +65.3111229 -61.23    0.121
       100   2507.5039   1602.0236   2507.5256   1601.8653   2507.5293   1601.9096     35427.89     37641.96 -11.3734 -11.4392      1.670   0  50 185.0311571 +65.3473173 -70.09    0.110
       101     38.8491   1607.3491     38.8258   1607.0635     38.8413   1607.1297     72263.83     75027.06 -12.1473 -12.1880      1.765   0  43 186.6866362 +65.2816551 -72.90    0.132
       102   2133.5906   1624.2754   2133.5925   1624.0543   2133.5938   1624.0952     52693.63     55235.72 -11.8044 -11.8555      1.708   0  52 185.2811631 +65.3325282 -65.27    0.101
       103   2606.8821   1640.9453   2606.8711   1640.7246   2606.8754   1640.7663     47542.36      49321.9 -11.6927 -11.7326      1.667   0  54 184.9622836 +65.3386069 -69.63    0.084
       104    179.1184   1652.8901    179.1037   1652.7746    179.0893   1652.7848     22600.74     23778.98 -10.8853 -10.9405      1.683   0  43 186.5895736 +65.2730465 -69.51    0.131
       105    166.5507   1690.4146    166.5485   1690.1459    166.5735   1690.1953     77325.46     78786.02 -12.2208 -12.2411      1.764   0  77 186.5953435 +65.2621813 -70.68    0.123
       106    695.6389   1720.8037    695.6176   1720.4637    695.6137   1720.6320       194678     184331.5 -13.2233 -13.1640      1.757   0  42 186.2393396 +65.2687393 -80.81    0.104
       107   1396.9913   1728.4990   1397.0455   1728.3936   1397.0410   1728.4033     20062.28     21185.36 -10.7560 -10.8151      1.658   0  50 185.7691818 +65.2852674 -74.49    0.136
       108   2739.8535   1800.9722   2739.8286   1800.7800   2739.8377   1800.8329     38534.26     40165.38 -11.4646 -11.5096      1.646   0  44 184.8645750 +65.2966339 -62.35    0.069
       109   2515.8196   1830.6416   2515.8095   1830.6030   2515.7987   1830.6242      20356.3     21422.35 -10.7717 -10.8272      1.664   0  62 185.0132792 +65.2834054 -68.31    0.097
       110    850.1772   1839.2185    850.1815   1838.9785    850.1827   1839.0265     53436.16     57301.43 -11.8196 -11.8954      1.701   0  62 186.1281722 +65.2398284 -64.36    0.118
       111    315.5011   1876.4813    315.4279   1876.0924    315.5002   1876.4128       396193     363719.8 -13.9948 -13.9019      1.835   0  81 186.4828807 +65.2144443 -86.83    0.110
       112   1614.8688   1908.2461   1614.8866   1908.0928   1614.8762   1908.1038     22686.18     25796.58 -10.8894 -11.0289      1.634   0  42 185.6123881 +65.2404119 -71.20    0.116
       113     80.4542   1964.9242     80.3789   1964.5283     80.4340   1965.0364       820213     688194.6 -14.7848 -14.5943      1.837   4  68 186.6335117 +65.1828656  89.52    0.100
       114   2409.6748   1977.8646   2409.6112   1977.4902   2409.6398   1977.8500     735955.4     686050.3 -14.6671 -14.5909      1.767   4  60 185.0764631 +65.2397524  88.40    0.090
       115   1510.4509   2021.8806   1510.4081   2021.4825   1510.4282   2021.9015     729102.6     671363.7 -14.6570 -14.5674      1.782   4  62 185.6753806 +65.2059589 -89.71    0.099
       116    710.0441   2049.0955    710.0199   2048.7293    710.0203   2048.9619     185540.2     181897.6 -13.1711 -13.1496      1.769   0  81 186.2079888 +65.1772377 -80.57    0.111
       117   2869.5110   2043.5625   2869.5441   2043.4031   2869.5456   2043.4275     28757.38     32065.27 -11.1469 -11.2651      1.706   0  44 184.7651961 +65.2313764 -72.05    0.093
       118   2822.3425   2072.8652   2822.2929   2072.6258   2822.3892   2073.3353      1786089      1551852 -15.6298 -15.4771      2.292   4  92 184.7952668 +65.2221577  85.92    0.206
       119   2565.9358   2061.6023   2565.9264   2061.3624   2565.9484   2061.4514     62232.86     64161.16 -11.9850 -12.0182      1.687   0  33 184.9674036 +65.2197583 -73.52    0.127
       120   1882.3381   2074.0083   1882.3478   2073.7527   1882.3543   2073.8099     50144.45     51666.43 -11.7506 -11.7830      1.683   0  54 185.4237998 +65.2005120 -72.43    0.114
       121   2408.2000   2912.0151   2408.1676   2911.7076   2408.1804   2911.8141     132338.5     132034.7 -12.8042 -12.8017      1.696   0  78 185.0273558 +64.9777932 -81.43    0.113
       122   2803.6860   3072.3896   2803.7282   3072.2502   2803.7218   3072.2659     26030.23     27713.58 -11.0387 -11.1067      1.682  16  42 184.7569945 +64.9414330 -64.40    0.082
       123   1549.1757   2999.4155   1549.1101   2999.1090   1549.1449   2999.7724      1262254     937669.2 -15.2529 -14.9301      1.998   4  55 185.5913960 +64.9330145  88.35    0.131
       124    576.8148   2991.4358    576.8073   2991.2944    576.7969   2991.2905     19059.19     21286.49 -10.7003 -10.8203      1.732   0  56 186.2344756 +64.9097697 -70.19    0.125
       125   1272.7220   2963.5234   1272.7149   2963.2368   1272.7268   2963.3656     84370.12     83763.85 -12.3155 -12.3076      1.762   0  52 185.7764006 +64.9361001 -76.46    0.123
       126   2355.2888   2958.5315   2355.2684   2958.4211   2355.2735   2958.4409      24104.9     27217.39 -10.9553 -11.0871      1.685   0  31 185.0599511 +64.9635605 -67.78    0.056
       127   1436.0824   2661.0134   1436.0787   2660.8008   1436.0701   2660.8651     40875.81     42483.95 -11.5287 -11.5706      1.653   0  54 185.6864394 +65.0250134 -70.70    0.117
       128   2200.7825   2363.7678   2200.7797   2363.5929   2200.7769   2363.6318     37538.91     38779.98 -11.4362 -11.4715      1.652   0  50 185.1949152 +65.1268000 -65.69    0.077
       129    730.1787   2559.5798    730.1858   2559.4089    730.1778   2559.4319     25480.74      26468.3 -11.0155 -11.0568      1.710   0  49 186.1611774 +65.0348790 -74.81    0.156
       130   1408.2377   2424.0688   1408.2489   2423.9242   1408.2526   2423.9567     29262.85     31439.01 -11.1658 -11.2437      1.665   0  32 185.7192223 +65.0906953 -68.46    0.134
       131    314.1260   2678.6511    314.2006   2678.5328    314.1927   2678.5409     17395.89     18168.44 -10.6011 -10.6483      1.721   0  40 186.4289685 +64.9899514 -65.44    0.186
       132    234.8148   2536.4087    234.8211   2536.2159    234.8201   2536.2392     30606.04     32068.09 -11.2145 -11.2652      1.730   0  55 186.4911959 +65.0274825 -61.84    0.115
       133   1555.5292   2638.0198   1555.5272   2637.7295   1555.5392   2637.8402     89116.26      90356.5 -12.3749 -12.3899      1.736   0  34 185.6085182 +65.0344505 -76.10    0.132
       134   2419.4626   2482.2854   2419.4663   2482.0703   2419.4803   2482.1009     39644.44     41730.03 -11.4955 -11.5511      1.702   0  40 185.0427751 +65.0985461 -82.01    0.135
       135   3060.3945   2711.1672   3060.3900   2710.8219   3060.4362   2711.1621       685344     667715.9 -14.5898 -14.5615      1.771  16 134 184.6045614 +65.0481137  75.28    0.065
       136   2166.3542   2685.4780   2166.3025   2685.0968   2166.3213   2685.5490     634750.6     551527.9 -14.5065 -14.3539      1.786   4  74 185.2001109 +65.0358127 -89.98    0.106
       137    475.1110   2427.1428    475.1832   2427.0117    475.1664   2427.0311     16507.71     17334.18 -10.5442 -10.5973      1.742   0  46 186.3391987 +65.0648861 -69.38    0.151
       138    539.6123   3006.7200    539.5417   3006.3308    539.5680   3006.6338     409618.8     383644.2 -14.0309 -13.9598      1.858   0  53 186.2580282 +64.9044630 -85.02    0.114
       139   1077.3978   2400.2893   1077.3707   2400.1748   1077.3756   2400.1688     17711.21      18828.6 -10.6206 -10.6870      1.736   0  42 185.9407420 +65.0887990 -56.16    0.141
       140   1680.4474   2996.5286   1680.4379   2996.3333   1680.4391   2996.3979     41627.76     42450.74 -11.5485 -11.5697      1.785   0  53 185.5047157 +64.9370574 -78.22    0.184
       141   2184.1748   2444.2302   2184.1369   2444.0771   2184.1252   2444.0897     22233.06      24572.7 -10.8675 -10.9761      1.662   0  48 185.2015437 +65.1038593 -66.83    0.078
       142    683.1697   2206.1021    683.2129   2205.9395    683.2091   2205.9575     19988.24     21766.28 -10.7519 -10.8445      1.687   0  48 186.2155534 +65.1325455 -61.87    0.134
       143    552.5464   2211.7327    552.5122   2211.3903    552.5479   2211.5729     204449.8     199674.8 -13.2765 -13.2508      1.806   0  55 186.3021321 +65.1273445 -80.28    0.110
       144   1602.6116   3010.5771   1602.6510   3010.3848   1602.6405   3010.4261     32289.78      36478.2 -11.2727 -11.4051      1.732   0  35 185.5553937 +64.9312083 -71.82    0.133
       145    444.6391   2893.8721    444.6190   2893.8187    444.5950   2893.7050     81625.35     107205.4 -12.2796 -12.5755      4.925   0  55 186.3282062 +64.9334059 -73.50    0.047
       146   2852.4673   3039.6580   2852.4246   3039.3402   2852.4728   3039.5584     260766.6     252265.2 -13.5406 -13.5046      1.766   0  43 184.7263230 +64.9516465 -86.98    0.099
       147    442.9521   2428.9788    442.9322   2428.6658    442.9506   2428.7753     107449.2     106222.9 -12.5780 -12.5655      1.768   0  74 186.3604256 +65.0634675 -74.66    0.115
       148   1705.5596   2666.8650   1705.5248   2666.5245   1705.5350   2666.7113     189885.1       183852 -13.1962 -13.1612      1.749   0  47 185.5072083 +65.0300691 -85.42    0.094
       149   1680.7341   2300.7808   1680.7286   2300.4937   1680.7335   2300.6029     96163.64     96208.91 -12.4575 -12.4580      1.719   0  55 185.5451318 +65.1320524 -70.92    0.098
       150   1887.5990   2277.4126   1887.6047   2277.3563   1887.5961   2277.3608     17289.05     18277.45 -10.5944 -10.6548      1.681   0  50 185.4085814 +65.1436315 -56.11    0.139
       151   2900.0339   2277.9170   2899.9901   2277.6572   2900.0070   2277.7169     79073.45     80326.09 -12.2451 -12.2621      1.659   0  52 184.7329185 +65.1662971 -80.22    0.086
       152   2354.6238   2771.1890   2354.5680   2770.8271   2354.6044   2771.3046      1061214     985147.1 -15.0645 -14.9838      1.902   4  76 185.0704174 +65.0160800  88.11    0.119
       153   2266.4241   2939.0586   2266.4221   2938.7731   2266.4354   2938.8676     65153.22     66452.74 -12.0348 -12.0563      1.705   0  41 185.1198879 +64.9670081 -67.06    0.106
       154   2958.7903   2161.4124   2958.7719   2161.1877   2958.7706   2161.2256     40672.84     41742.36 -11.5233 -11.5514      1.698   0  61 184.6995182 +65.2002023 -72.73    0.089
       155    490.7727   3003.3413    490.7265   3002.9734    490.7504   3003.2174     220559.1     204957.2 -13.3588 -13.2792      1.803   0  27 186.2904827 +64.9040533 -81.77    0.112
       156   1849.9122   2111.9866   1849.8586   2111.5964   1849.8700   2111.9267     557180.5     529856.9 -14.3650 -14.3104      1.738   0  69 185.4432690 +65.1890863  89.67    0.101
       157   2948.0681   2085.4814   2948.0453   2085.3758   2948.0374   2085.3912     22764.98     24003.19 -10.8932 -10.9507      1.672   0  45 184.7105029 +65.2212732 -62.10    0.075
       158    100.8145   2092.5659    100.8044   2092.2428    100.8346   2092.3829     116890.9     114800.9 -12.6695 -12.6499      1.796   0  68 186.6109770 +65.1477591 -67.56    0.121
       159    547.6888   3039.3193    547.6152   3038.9459    547.6442   3039.5770      1094506     805073.3 -15.0980 -14.7646      1.931   4  88 186.2505563 +64.8955608 -89.78    0.121
       160   3069.4463   2855.6504   3069.5932   2855.3730   3069.6003   2855.4908     168390.7       184933 -13.0658 -13.1675      1.680  24  68 184.5914993 +65.0077713 -80.29    0.201
       161   1867.3708   2672.3228   1867.3868   2672.1938   1867.4015   2672.1910     17357.74     18691.26 -10.5987 -10.6791      1.654   0  44 185.3994439 +65.0324588 -67.79    0.115
