#   1 NUMBER                 Running object number                                     
#   2 X_IMAGE                Object position along x                                    [pixel]
#   3 Y_IMAGE                Object position along y                                    [pixel]
#   4 XWIN_IMAGE             Windowed position estimate along x                         [pixel]
#   5 YWIN_IMAGE             Windowed position estimate along y                         [pixel]
#   6 XMODEL_IMAGE           X coordinate from model-fitting                            [pixel]
#   7 YMODEL_IMAGE           Y coordinate from model-fitting                            [pixel]
#   8 FLUX_AUTO              Flux within a Kron-like elliptical aperture                [count]
#   9 FLUX_MODEL             Flux from model-fitting                                    [count]
#  10 MAG_AUTO               Kron-like elliptical aperture magnitude                    [mag]
#  11 MAG_MODEL              Magnitude from model-fitting                               [mag]
#  12 FLUX_RADIUS            Fraction-of-light radii                                    [pixel]
#  13 FLAGS                  Extraction flags                                          
#  14 NITER_MODEL            Number of iterations for model-fitting                    
#  15 ALPHA_SKY              Right ascension of barycenter (native)                     [deg]
#  16 DELTA_SKY              Declination of barycenter (native)                         [deg]
#  17 THETA_WORLD            Position angle (CCW/world-x)                               [deg]
#  18 ELLIPTICITY            1 - B_IMAGE/A_IMAGE                                       
         1    264.0385     74.8994    264.0798     74.6050    264.0520     74.9444     212319.5     193438.4 -13.3175 -13.2164      1.598   0  74 184.8424230 +65.8167733  62.96    0.043
         2   2999.9021     58.5855   3000.1421     57.0010   3000.5034     53.3869     8460.708     84604.23  -9.8185 -12.3185      2.997  17 125 186.6885536 +65.7522443  -6.24    0.734
         3   2962.4260     70.0797   2962.4950     69.8864   2962.5027     69.9709     12919.67     13315.46 -10.2781 -10.3109      1.577   0  84 186.6625314 +65.7501651 -27.57    0.036
         4   1659.8270     81.8888   1659.8600     81.6220   1659.8273     81.8953     55230.49      52313.1 -11.8554 -11.7965      1.579   0  53 185.7844987 +65.7823964  73.21    0.039
         5    499.6560     73.6806    499.6762     73.7523    499.6613     73.7458     3314.752     3381.682  -8.8011  -8.8228      2.313   0  32 185.0017490 +65.8120411  42.01    0.087
         6     81.1237     81.0595     81.0902     80.9265     81.0738     80.9794     4262.218     4874.387  -9.0741  -9.2198      1.526   0  47 184.7184341 +65.8188886 -83.39    0.079
         7   1566.2753    128.3370   1571.1233    128.3897   1571.5506    126.6784     50821.54     508124.8 -11.7651 -14.2649      3.837   3 122 185.7185738 +65.7719028  87.58    0.605
         8   1578.0000    126.0065   1571.5029    126.9165   1571.3050    126.6303     53342.93     526767.8 -11.8177 -14.3040      8.854   3  99 185.7266199 +65.7722539 -82.26    0.610
         9   2471.0723    111.5395   2471.0772    111.4521   2471.0627    111.4656     2728.516     2780.993  -8.5898  -8.6105      1.535   0  69 186.3290954 +65.7526870  80.91    0.084
        10   1207.4252    121.8283   1207.4410    121.6932   1207.4482    121.7722     8225.006     8790.899  -9.7878  -9.8601      1.566   0  41 185.4769613 +65.7824938 -76.73    0.031
        11   1571.5507    132.0000   1570.0700    127.8147   1571.3866    126.6759     50352.85     502414.2 -11.7551 -14.2527      4.731   3  97 185.7219065 +65.7707574  -8.69    0.702
        12   2914.5596    133.3388   2914.5629    133.2136   2914.5549    133.2370     4615.856     4806.172  -9.1606  -9.2045      1.562   0  62 186.6258702 +65.7340838 -75.26    0.042
        13   1358.9717    160.0866   1358.9758    159.8999   1358.9598    159.9583     11673.22     11913.66 -10.1680 -10.1901      1.523   0  87 185.5769087 +65.7682425 -79.09    0.060
        14   1384.5558    159.6151   1384.5575    159.4548   1384.5547    159.5725     9075.847     9084.235  -9.8947  -9.8957      1.587   0  37 185.5941844 +65.7677476 -53.61    0.026
        15   2582.9963    160.2613   2582.9638    160.1629   2582.9328    160.1773     2731.108     3040.755  -8.5908  -8.7075      1.538   0  47 186.4010857 +65.7361028 -81.13    0.100
        16   2524.1792    168.6977   2524.1890    168.4981   2524.1967    168.6107     17005.15     17950.92 -10.5765 -10.6352      1.583   0  57 186.3609583 +65.7354148 -83.38    0.036
        17   2775.3672    181.3049   2775.3887    181.0743   2775.4008    181.2202     37466.34     38070.13 -11.4341 -11.4515      1.599   0  43 186.5289591 +65.7248420  87.74    0.031
        18   2961.9805    205.9971   2962.0349    205.7287   2962.0751    206.0803     493463.9     418040.8 -14.2331 -14.0530      1.695   0  26 186.6525945 +65.7126343  65.82    0.048
        19   1550.8289    180.2769   1550.8518    180.1640   1550.8263    180.1990     3876.977     4068.467  -8.9712  -9.0236      1.526   0  33 185.7050006 +65.7579204 -74.78    0.069
        20   1626.5532    199.5191   1626.5543    199.3293   1626.5543    199.4863     16767.84     16228.49 -10.5612 -10.5257      1.582   0  56 185.7548377 +65.7506985 -82.35    0.066
        21    540.2100    217.0310    540.1945    216.9210    540.2024    216.9926     3960.095     4441.086  -8.9943  -9.1187      1.526   0  59 185.0214701 +65.7714596 -73.23    0.079
        22   1622.9231    255.2152   1622.9602    254.9546   1622.8910    255.1532     103779.7      96334.1 -12.5403 -12.4594      1.578   0  76 185.7489807 +65.7353831  70.65    0.041
        23   2377.6865    249.1369   2377.6910    248.9491   2377.7004    249.0334     12201.76     12564.01 -10.2161 -10.2478      1.566   0  36 186.2570640 +65.7172293 -64.25    0.066
        24   2295.8237    255.0897   2295.8485    254.8602   2295.8244    255.0395      28306.6      28128.3 -11.1297 -11.1229      1.561   0  48 186.2016423 +65.7178166 -86.08    0.040
        25   2317.4043    257.9781   2317.4205    257.7494   2317.4251    257.9403     35670.61     34717.85 -11.3808 -11.3514      1.573   0  62 186.2159579 +65.7164315 -89.90    0.043
        26   2325.4944    248.5120   2325.4546    248.4283   2325.4539    248.4533     2833.151     3298.578  -8.6307  -8.7958      1.597   0  48 186.2220226 +65.7188279 -71.35    0.076
        27   2012.4438    260.0553   2012.4692    259.8459   2012.4951    260.0308     26384.06     26078.44 -11.0534 -11.0407      1.568   0  35 186.0107736 +65.7240192  89.32    0.039
        28   2650.5613    262.3623   2650.5594    262.1788   2650.5409    262.2402     17729.77     18228.34 -10.6218 -10.6519      1.598   0  88 186.4395149 +65.7059890 -83.14    0.053
        29   1257.7079    271.2625   1257.6925    271.1066   1257.6835    271.1493     8722.369     8957.973  -9.8516  -9.8805      1.567   0  80 185.5021113 +65.7399341 -75.38    0.041
        30   1395.3059    272.4351   1395.2802    272.2763   1395.2785    272.4008     11940.76     12492.63 -10.1926 -10.2416      1.574   0  47 185.5947015 +65.7362690 -73.57    0.052
        31    396.5153    267.1262    396.5065    267.0488    396.5045    267.0710      2851.27     2942.444  -8.6376  -8.6718      1.527   0  60 184.9218749 +65.7607113 -73.36    0.047
        32    255.9785    284.7420    255.9984    284.4970    255.9955    284.7164     52545.89     49177.56 -11.8013 -11.7294      1.571   0  71 184.8261620 +65.7588271  74.18    0.039
        33   1781.9122    277.2084   1781.8824    277.0898   1781.8666    277.1096     8124.039     8355.872  -9.7744  -9.8050      1.526   0  45 185.8546156 +65.7252624 -78.17    0.047
        34   2817.5312    290.8136   2817.5242    290.6511   2817.5183    290.7423     11929.65     11936.77 -10.1916 -10.1922      1.572   0  49 186.5496569 +65.6933793 -72.05    0.035
        35   2968.4990    323.7851   2968.5579    323.5265   2968.5363    323.8799     256020.2     227990.3 -13.5207 -13.3948      1.614   0  93 186.6486375 +65.6799079  69.38    0.051
        36   2838.3433    312.5239   2838.3368    312.3447   2838.3516    312.4782     15961.15     17205.38 -10.5077 -10.5892      1.579   0  38 186.5621103 +65.6867837 -78.42    0.041
        37   1153.4039    317.8882   1153.3821    317.7581   1153.3954    317.7892     4517.093     4613.187  -9.1371  -9.1600      1.556   0  52 185.4291600 +65.7295254 -74.61    0.066
        38    459.0442    320.4681    459.0565    320.4064    459.0388    320.4238     2967.995     2999.421  -8.6812  -8.6926      1.533   0  54 184.9612311 +65.7445889 -89.07    0.107
        39   2646.0625    353.0331   2646.0927    352.8135   2646.0747    352.9471        29916     29488.33 -11.1898 -11.1741      1.549   0  86 186.4302898 +65.6810606 -86.15    0.034
        40   1340.3879    350.8314   1340.3696    350.8843   1340.3629    350.8269     7284.422     9856.953  -9.6560  -9.9844      4.281   0  50 185.5530863 +65.7159167 -44.16    0.204
        41   1752.3043    349.7727   1752.2731    349.6352   1752.2990    349.6695     5733.021     6331.066  -9.3960  -9.5037      1.528   0  50 185.8301914 +65.7059492 -73.43    0.090
        42   2627.2346    366.2366   2627.2347    366.0459   2627.2115    366.1634     17739.32      17523.6 -10.6223 -10.6091      1.572   0  34 186.4167551 +65.6779416 -56.89    0.039
        43   2988.2473    372.1359   2988.2508    371.9889   2988.2569    372.1048     9464.967     10135.69  -9.9403 -10.0146      1.533   0  26 186.6584610 +65.6659765 -84.22    0.066
        44    822.1196    382.1681    822.1061    382.0173    822.0894    382.1162     9316.771     9354.863  -9.9232  -9.9276      1.528   0  36 185.2024820 +65.7194371 -78.13    0.059
        45     88.5121    394.3927     88.5299    394.1755     88.5463    394.3542     28519.12     30415.36 -11.1378 -11.2077      1.589   0  54 184.7076832 +65.7319455  81.13    0.031
        46   2246.2939    384.4031   2246.2451    384.2868   2246.2325    384.3002     4520.534     4901.447  -9.1380  -9.2258      1.562   0  65 186.1598667 +65.6834088 -70.89    0.071
        47   2391.7073    397.5847   2391.7360    397.3658   2391.6740    397.5051      33695.7     34937.21 -11.3189 -11.3582      1.589   0  70 186.2566019 +65.6758125  88.10    0.030
        48   2861.8682    402.5761   2861.8926    402.4593   2861.8771    402.4910     5203.061     5247.601  -9.2906  -9.2999      1.541   0  82 186.5716036 +65.6612284 -74.41    0.060
        49   2958.2249    409.8626   2958.2284    409.6675   2958.2288    409.7909     21860.89      21445.2 -10.8492 -10.8283      1.562   0  80 186.6356748 +65.6564291 -81.25    0.033
        50   1254.8328    461.5984   1260.3967    460.8881   1260.5446    460.3863      75349.8     750736.8 -12.1927 -14.6887      4.910   3 106 185.4890481 +65.6873326  84.39    0.542
        51   1267.1379    459.6003   1260.1426    460.4834   1260.0317    460.4548      70955.6     709360.6 -12.1275 -14.6272     10.753   3 163 185.4974356 +65.6875898  86.60    0.581
        52   1013.0027    438.6993   1013.0165    438.5051   1013.0144    438.6982     22520.47     21338.48 -10.8814 -10.8229      1.557   0  75 185.3277645 +65.6993924 -83.76    0.035
        53   1296.6124    440.0308   1296.6255    439.8583   1296.6317    439.9747     10314.95     11161.77 -10.0337 -10.1193      1.524   0  38 185.5183939 +65.6922947 -63.47    0.033
        54    854.7209    458.9957    854.7465    458.7552    854.7465    459.0218      56589.8      51016.5 -11.8818 -11.7693      1.561   0  82 185.2201625 +65.6974258  72.97    0.036
        55   2969.9363    471.3806   2969.9476    471.1836   2969.9442    471.2802     20591.49     20088.01 -10.7842 -10.7573      1.568   0  79 186.6391856 +65.6390950 -81.13    0.040
        56   1260.1129    467.0000   1258.5411    461.3946   1260.0302    460.3168     46064.12     450304.7 -11.6584 -14.1338      5.646  19 101 185.4922818 +65.6857110  -6.67    0.716
        57   1268.4308    478.6892   1268.4296    478.5639   1268.4118    478.6550     13671.42     16898.24 -10.3395 -10.5696      1.688   0  64 185.4971892 +65.6822763 -82.00    0.034
        58   1288.2330    477.4922   1288.2420    477.3392   1288.2329    477.3631     6753.263     8216.591  -9.5738  -9.7867      1.596   0  47 185.5105663 +65.6821306 -64.57    0.027
        59   2120.8179    489.6476   2120.8432    489.4082   2120.8196    489.6367      49965.1     46699.46 -11.7467 -11.6733      1.578   0  24 186.0688237 +65.6576701  79.26    0.038
        60    749.5021    488.5457    749.4964    488.3854    749.5052    488.5253     11799.54     12994.92 -10.1797 -10.2844      1.568   0  18 185.1477643 +65.6916309 -76.73    0.031
        61    724.7830    527.3901    724.8160    527.1362    724.7820    527.4851     452955.9     445690.8 -14.1401 -14.1226      1.701   0  56 185.1290217 +65.6814321  64.09    0.052
        62    444.1407    507.9661    444.1472    507.7831    444.1369    507.9805     18884.19     18579.48 -10.6902 -10.6726      1.541   0  67 184.9413200 +65.6929899 -82.07    0.032
        63    751.6437    528.8443    751.6699    528.5980    751.6493    528.8063      61353.7     58622.04 -11.9696 -11.9202      1.575   0  53 185.1470003 +65.6804259  65.60    0.035
        64   2568.5908    517.5992   2568.5870    517.4806   2568.5635    517.5164     5911.573     6510.028  -9.4293  -9.5340      1.550   0  76 186.3671619 +65.6377534 -77.73    0.083
        65   1528.9089    523.7629   1528.9173    523.5609   1528.9184    523.7474     27984.36      26539.9 -11.1173 -11.0597      1.553   0  48 185.6694745 +65.6634406 -75.33    0.021
        66   1279.0310    548.8729   1279.0730    548.6099   1279.0739    548.8731     243161.3     230607.2 -13.4647 -13.4072      1.559   0  58 185.5002105 +65.6625996  68.42    0.053
        67   2403.0420    539.5466   2403.0129    539.4290   2402.9697    539.4351     5039.897     5478.977  -9.2561  -9.3467      1.517   0  60 186.2547722 +65.6362617 -43.65    0.049
        68   3134.6746    548.5657   3134.6396    548.5037   3134.6157    548.5177     3464.207     3817.497  -8.8490  -8.9544      1.556   0  53 186.7439647 +65.6129481  84.28    0.048
        69    849.0773    593.7853    842.1675    593.9858    842.6237    593.9794     54222.72     538166.9 -11.8355 -14.3273      8.513   3  91 185.2089026 +65.6602407 -89.18    0.585
        70    520.8876    570.9903    520.9159    570.7267    520.9135    570.9663     130641.7       124302 -12.7902 -12.7362      1.567   0  50 184.9896072 +65.6738712  72.32    0.046
        71    837.3789    595.8039    842.5110    594.1235    842.9835    593.9094     56753.73       567419 -11.8850 -14.3848      5.647   3 132 185.2009334 +65.6599482  87.60    0.564
        72   2912.3196    599.7470   2912.3717    599.4810   2912.4101    599.7280     158320.4     147110.8 -12.9988 -12.9191      1.599   0  82 186.5916173 +65.6053027  71.43    0.050
        73   1839.2072    583.9018   1839.2146    583.7572   1839.2155    583.7952     8979.357     9229.236  -9.8831  -9.9129      1.509   0  64 185.8739821 +65.6389664  83.81    0.032
        74   1329.8953    595.8509   1329.8820    595.7773   1329.8673    595.8007     3514.528     3977.658  -8.8647  -8.9991      1.512   0  39 185.5316047 +65.6483722 -77.54    0.027
        75   3146.4663    600.3237   3146.4792    600.2454   3146.4816    600.2670     2767.396     2878.838  -8.6052  -8.6480      1.535   0  52 186.7481491 +65.5983047 -72.36    0.074
        76   1084.6257    656.1354   1086.0920    655.8692   1090.4037    654.6474     77770.94     773889.3 -12.2270 -14.7217      4.292   3  90 185.3635360 +65.6375348 -87.60    0.507
        77   1097.5519    654.4404   1090.0888    654.8781   1090.1014    654.6654      71842.3     716736.1 -12.1410 -14.6384     11.183   3 109 185.3723055 +65.6377003  86.36    0.603
        78   2698.6990    608.2374   2698.6191    608.1452   2698.6086    608.1644     6448.226     6882.977  -9.5236  -9.5944      1.576   0  65 186.4481166 +65.6090554 -60.37    0.017
        79    843.0186    600.0000    841.4141    595.2999    842.7618    594.0117     34956.48     349564.2 -11.3588 -13.8588      4.706  19 144 185.2044897 +65.6586583  -5.22    0.753
        80   1232.0846    614.9089   1232.0703    614.8165   1232.0616    614.8442      4039.55     4236.723  -9.0158  -9.0676      1.490   0  61 185.4648529 +65.6454515 -86.87    0.061
        81   2350.5396    622.3998   2350.5570    622.3237   2350.5529    622.3128     5142.347     6241.549  -9.2779  -9.4882      2.435   0  29 186.2141272 +65.6147921 -79.70    0.231
        82    878.3140    620.3765    878.2778    620.2676    878.2774    620.3070     5607.774       6013.6  -9.3720  -9.4478      1.537   0  33 185.2270647 +65.6522122 -62.96    0.015
        83   1943.3606    630.2996   1943.3735    630.2380   1943.3877    630.2544     3191.587      3432.27  -8.7600  -8.8390      1.546   0  48 185.9408877 +65.6234411 -57.03    0.086
        84   1593.6606    648.2984   1593.6661    648.0844   1593.6258    648.2040     28230.74      28303.6 -11.1268 -11.1296      1.579   0  39 185.7053980 +65.6273757 -88.94    0.033
        85   1954.7601    644.7242   1954.7745    644.5928   1954.7255    644.5901      5675.92     6080.632  -9.3851  -9.4599      1.516   0  65 185.9476162 +65.6191554 -84.59    0.098
        86   2799.9177    658.0992   2799.9541    657.8758   2799.9211    658.0551     32567.62     31264.62 -11.2820 -11.2376      1.547   0  38 186.5123966 +65.5924058  79.68    0.035
        87   1151.1344    676.2650   1151.1721    676.0050   1151.2387    676.2316     179007.5       166693 -13.1322 -13.0548      1.584   0  88 185.4070042 +65.6303965  67.99    0.046
        88    347.0913    660.0811    347.1001    659.9042    347.0830    659.9834     12169.81     12265.81 -10.2132 -10.2217      1.514   0  50 184.8681554 +65.6529449 -85.40    0.075
        89    701.2422    655.0791    701.2038    654.9266    701.2174    654.9728     3891.587     4215.764  -8.9753  -9.0622      1.510   0  37 185.1062682 +65.6466064 -81.38    0.037
        90   3133.6584    685.0414   3133.7160    684.7770   3133.6858    685.1198     365330.7       335829 -13.9067 -13.8153      1.594   0  84 186.7335421 +65.5752844  67.31    0.047
        91    184.9529    662.5474    184.9286    662.5423    184.9150    662.5003     3635.715     4407.842  -8.9015  -9.1106      2.799   0  34 184.7590964 +65.6556738 -30.33    0.246
        92   1975.0818    663.4194   1975.1156    663.3412   1975.0896    663.3358     3461.692     3879.456  -8.8482  -8.9719      1.519   0  48 185.9600488 +65.6134557  88.53    0.109
        93   2580.6470    689.1856   2580.6958    688.9150   2580.6857    689.2937     265185.2     228018.7 -13.5589 -13.3949      1.590   0  41 186.3636520 +65.5899966  67.26    0.045
        94     85.5699    664.6353     85.5482    664.5334     85.5291    664.5402     3188.125     3520.331  -8.7588  -8.8665      1.523   0  91 184.6922092 +65.6571484 -70.75    0.063
        95    178.0000    704.5788    173.3113    705.4525    173.4817    704.5796     55098.82     370361.4 -11.8529 -13.9216      4.767   3 145 184.7523054 +65.6441762  77.17    0.713
        96    169.0000    705.0139    173.0722    705.9111    173.0434    704.4019     66873.76     408774.1 -12.0631 -14.0287      4.456   3 109 184.7462388 +65.6442426 -88.83    0.678
        97   2114.5562    693.7836   2114.5483    693.6679   2114.5465    693.7102     5700.663     5784.436  -9.3898  -9.4057      1.532   0  41 186.0515051 +65.6013924 -80.63    0.088
        98    173.4439    699.8690    173.0050    706.3807    173.1738    704.7010     58102.86     332660.8 -11.9105 -13.8050      6.643   3 116 184.7494826 +65.6455754  -0.26    0.610
        99    173.2755    708.0729    173.3588    706.9067    173.1821    704.7852     70111.06     259616.1 -12.1145 -13.5358      2.989   3  70 184.7489563 +65.6433065  -4.28    0.638
       100    116.5071    757.3154    118.1960    756.9739    123.0149    755.9492     79200.66     787866.4 -12.2468 -14.7411      4.797   3  90 184.7083696 +65.6308400 -84.62    0.531
       101    129.7848    755.6310    122.0960    755.9496    122.2081    756.1599     73213.32     731928.2 -12.1615 -14.6612     10.443   3 181 184.7173674 +65.6310331  85.57    0.579
       102    565.7784    711.0571    565.7822    710.9240    565.7677    710.9744     5960.565     6111.502  -9.4382  -9.4654      1.508   0  68 185.0123277 +65.6341042  86.93    0.072
       103    440.8994    732.4997    440.9211    732.2649    440.9680    732.4357     47975.97     46049.83 -11.7026 -11.6581      1.578   0  73 184.9273830 +65.6308803  74.70    0.033
       104    965.2215    762.1603    959.0788    762.9963    958.9968    762.6650     40796.24     398081.7 -11.5266 -13.9999      5.222   3  70 185.2774754 +65.6109670  79.84    0.592
       105    954.1273    763.9673    957.8788    764.4655    959.6321    762.7457     38772.09     387720.7 -11.4713 -13.9713      3.185   3  80 185.2699373 +65.6107227 -82.24    0.654
       106   2303.1770    740.4006   2303.2055    740.1597   2303.2450    740.3604     74521.59     74193.57 -12.1807 -12.1759      1.596   0  72 186.1746890 +65.5834559  75.47    0.043
       107   2373.3669    734.9238   2373.3571    734.7465   2373.3893    734.8634     10695.15     11984.42 -10.0730 -10.1965      1.543   0  53 186.2219883 +65.5830653 -69.04    0.039
       108    221.7785    741.9572    221.7791    741.7709    221.7683    741.9030     20606.97     20546.21 -10.7850 -10.7818      1.540   0  53 184.7798131 +65.6329109 -83.84    0.023
       109    719.2012    767.5161    719.2317    767.2530    719.2395    767.5345     429805.4     427559.6 -14.0832 -14.0775      1.666   0  76 185.1122281 +65.6150748  69.24    0.045
       110   2236.3882    744.0859   2236.3628    743.9588   2236.3792    744.0206     4857.497     5402.751  -9.2160  -9.3315      1.516   0  35 186.1297793 +65.5842359 -78.26    0.086
       111   2492.7090    751.8897   2492.7204    751.6782   2492.7391    751.8721        26174     25813.39 -11.0447 -11.0296      1.545   0  39 186.3006531 +65.5751042 -82.76    0.025
       112   2956.3813    751.3677   2956.3970    751.2354   2956.4007    751.2694     7161.858     7821.134  -9.6376  -9.7332      1.564   0  56 186.6104651 +65.5621426 -76.89    0.073
       113   1858.4438    757.2704   1858.4302    757.0752   1858.4379    757.1445     16157.03     16936.16 -10.5209 -10.5720      1.553   0  66 185.8760713 +65.5905215 -79.10    0.047
       114    959.5224    768.0000    958.6632    763.3013    959.4284    762.5883     51154.75     511544.8 -11.7722 -14.2722      5.242   3 101 185.2733286 +65.6094820 -12.04    0.705
       115    959.5865    755.0000    959.0267    762.9612    959.1435    762.7231     27399.46     273988.3 -11.0944 -13.5943      7.271  19 243 185.2740981 +65.6130791  -4.11    0.640
       116    696.5034    759.7828    696.4968    759.7251    696.5024    759.7492     3803.649     4365.866  -8.9505  -9.1002      1.552   0  25 185.0974242 +65.6177227 -66.05    0.019
       117   2455.0005    766.6515   2455.0017    766.4898   2455.0157    766.5414     10605.14     10621.59 -10.0638 -10.0655      1.526   0  71 186.2744659 +65.5720620 -72.66    0.041
       118    418.2161    780.7758    418.2042    780.6667    418.2299    780.6907     5348.524     6064.696  -9.3206  -9.4570      1.499   0  70 184.9096461 +65.6179989 -74.79    0.061
       119   1130.0992    789.1336   1130.1103    789.0142   1130.1037    789.0897     6880.134     7120.299  -9.5940  -9.6312      1.505   0  44 185.3864474 +65.5996549 -73.57    0.031
       120   2112.4216    784.9363   2112.4368    784.8387   2112.4517    784.8723     2831.987     3066.372  -8.6302  -8.7166      1.530   0  46 186.0442383 +65.5762445 -30.87    0.054
       121   1824.2970    789.6155   1824.2625    789.5486   1824.2602    789.5648     4552.746     4766.618  -9.1457  -9.1955      1.515   0  47 185.8512123 +65.5824518 -58.48    0.076
       122   2235.7244    829.8262   2235.7711    829.5521   2235.7594    830.0230     296370.7     243923.8 -13.6796 -13.4681      1.579   0 104 186.1237753 +65.5605487  66.30    0.043
       123   2518.6501    833.2640   2518.6889    833.0150   2518.6940    833.2261     79919.54      73611.4 -12.2566 -12.1674      1.578   0  43 186.3125548 +65.5518964  72.01    0.034
       124   1920.9442    837.8111   1920.9750    837.5607   1920.9326    837.8015     113224.8       104978 -12.6349 -12.5527      1.554   0  57 185.9128551 +65.5666336  71.62    0.039
       125   2585.5781    823.2390   2585.5922    823.0885   2585.5919    823.1171     4966.921     5175.651  -9.2402  -9.2849      1.543   0  52 186.3579218 +65.5528108 -74.42    0.035
       126   2197.4114    865.4993   2197.4356    865.2711   2197.4286    865.4869     42130.26      41898.8 -11.5615 -11.5555      1.571   0  28 186.0958708 +65.5517105  81.53    0.039
       127    409.8801    884.6867    409.9129    884.4343    409.9305    884.6700     90510.16     83726.35 -12.3917 -12.3072      1.552   0  49 184.8986607 +65.5894006  70.94    0.043
       128   1222.0076    873.2479   1221.9821    873.1455   1221.9563    873.1562     2935.592     3227.838  -8.6692  -8.7723      1.491   0  38 185.4431691 +65.5741979 -81.29    0.091
       129   1607.4054    905.6037   1607.4373    905.3406   1607.4326    905.6144     168108.7     152778.9 -13.0640 -12.9602      1.581   0  86 185.6990610 +65.5558491  69.07    0.041
       130   1784.2278    902.9255   1784.2107    902.8201   1784.2395    902.8410     4094.651     4560.912  -9.0305  -9.1476      1.505   0  52 185.8174219 +65.5521337 -82.69    0.083
       131   2934.3635    931.8343   2934.4248    931.5657   2934.4537    931.8343     184230.9     174918.2 -13.1634 -13.1071      1.574   0  32 186.5831910 +65.5129223  66.01    0.045
       132    796.2056    931.7772    796.2374    931.5205    796.2733    931.7521     159461.7     150037.6 -13.0066 -12.9405      1.560   0  50 185.1548923 +65.5678679  69.78    0.046
       133   1213.7069    915.8311   1213.6940    915.6804   1213.6988    915.7991     8743.186      9073.89  -9.8542  -9.8945      1.508   0  45 185.4351645 +65.5626104 -67.08    0.045
       134   1288.5806    915.5999   1288.5662    915.5495   1288.5535    915.5832     4336.524     4828.208  -9.0929  -9.2095      1.537   0  37 185.4852634 +65.5608855  82.94    0.036
       135   3029.3599    919.5204   3029.3334    919.4542   3029.3415    919.4920      4138.43     4548.928  -9.0421  -9.1448      1.552   0  42 186.6473657 +65.5135725 -68.31    0.065
       136   2817.3140    924.0628   2817.2735    923.9392   2817.3004    923.9710     3652.708     4037.147  -8.9065  -9.0152      1.521   0  56 186.5056986 +65.5184234 -63.91    0.065
       137    123.0643    931.1247    123.0699    931.0022    123.0669    931.0485     7514.762     7751.122  -9.6898  -9.7234      1.505   0  53 184.7041064 +65.5825594 -75.37    0.026
       138   1071.6501    937.1046   1071.6592    936.9340   1071.6522    937.0195     12042.74     12798.68 -10.2018 -10.2679      1.532   0  48 185.3389180 +65.5600708 -72.72    0.029
       139   2042.0073    941.8734   2042.0140    941.6816   2042.0245    941.7376     15653.23     15787.09 -10.4865 -10.4958      1.512   0  63 185.9871991 +65.5347021 -74.41    0.037
       140    639.7085    946.0247    639.7287    945.8233    639.7231    945.9818     24658.96      24658.8 -10.9799 -10.9799      1.540   0  64 185.0493655 +65.5674157 -83.70    0.027
       141   1713.2822    939.9956   1713.2697    939.8737   1713.2688    939.9304      6855.24     7035.362  -9.5901  -9.6182      1.499   0  48 185.7677410 +65.5436782 -75.67    0.054
       142   2967.4973    937.3226   2967.5841    937.4957   2967.5912    937.4257     3773.655     3953.043  -8.9419  -8.9923      4.619   0  48 186.6048917 +65.5104494 -25.82    0.664
       143   2098.0000    958.5555   2092.3527    960.4490   2092.7253    958.7674     21451.26       211894 -10.8286 -13.3153      3.455   3 105 186.0235231 +65.5286171  82.80    0.696
       144   2091.1448    962.1547   2092.9064    958.8510   2093.0496    958.7468      54389.3       368634 -11.8388 -13.9165      4.170   3 103 186.0187181 +65.5278025 -28.04    0.410
       145   1845.4406    954.2025   1845.3886    954.0601   1845.3964    954.0887     3870.896     4028.591  -8.9695  -9.0129      1.517   0  49 185.8551561 +65.5363869 -56.85    0.055
       146   2093.0964    952.0000   2092.9439    958.9498   2092.9962    959.0056     14564.93     145646.8 -10.4083 -12.9083      5.729  19 145 186.0206668 +65.5305591  -0.96    0.693
       147   1664.7292    962.1299   1664.7350    961.9610   1664.7324    962.0394     11730.12      12256.8 -10.1733 -10.2209      1.525   0  71 185.7339555 +65.5387772 -78.36    0.037
       148   2556.6704    965.6852   2556.6877    965.6039   2556.6374    965.5998     3496.875     3773.369  -8.8592  -8.9418      1.532   0  28 186.3290805 +65.5142443 -64.64    0.064
       149   1320.0786    985.1263   1320.0981    984.8890   1320.1071    985.0746     55295.53      51867.5 -11.8567 -11.7872      1.539   0  84 185.5022853 +65.5408881  75.29    0.036
       150   1489.0000   1008.4700   1482.0861   1009.4877   1482.3438   1009.0402     36083.42     360827.2 -11.3933 -13.8932      6.723   3  86 185.6137832 +65.5303202  79.74    0.560
       151    818.5831    983.2764    818.5934    983.1506    818.5878    983.1810     7928.335     8594.084  -9.7480  -9.8355      1.523   0  76 185.1670559 +65.5531050 -62.87    0.025
       152   1668.7458   1020.7507   1670.1373   1020.9588   1674.1000   1019.7953     51274.43     512605.9 -11.7748 -14.2745      3.587   3 101 185.7330868 +65.5224596 -88.68    0.559
       153   3010.3347    997.4619   3010.3826    997.2077   3010.4058    997.4990     84261.34     78015.97 -12.3141 -12.2305      1.592   0  25 186.6292285 +65.4925947  72.75    0.035
       154   1477.3478   1010.8289   1481.8473   1010.9291   1482.7337   1008.9530     36591.04     365802.6 -11.4084 -13.9081      3.388   3 269 185.6058598 +65.5299536 -76.20    0.653
       155   2265.0000   1007.8705   2269.1903   1008.4736   2269.1875   1006.9087     43587.41     383848.5 -11.5984 -13.9604      3.272   3  54 186.1317882 +65.5105386  89.09    0.645
       156   2275.0000   1006.9988   2269.0431   1007.5202   2269.2958   1007.0283      35379.6     352279.1 -11.3719 -13.8672      5.160   3 164 186.1385143 +65.5105110  76.25    0.638
       157   2689.0969    997.2241   2689.1158    997.0052   2689.0943    997.1089     27386.19     27193.93 -11.0938 -11.0862      1.554   0  62 186.4152389 +65.5018336  87.73    0.048
       158   1680.5763   1020.8579   1673.1256   1020.3848   1673.9418   1019.8019     40786.25     407857.6 -11.5263 -14.0263      7.208   3 177 185.7409791 +65.5221329  70.15    0.639
       159   2410.6233   1010.5585   2410.6258   1010.3481   2410.6161   1010.5005      23602.1     22841.93 -10.9324 -10.8968      1.563   0  61 186.2287220 +65.5058555  82.86    0.025
       160   1846.4147    997.7508   1846.4039    997.5841   1846.4073    997.6881     11636.18     11709.79 -10.1645 -10.1714      1.535   0  49 185.8531127 +65.5243169 -67.03    0.017
       161   2269.9392   1000.8149   2269.0104   1007.8770   2269.6680   1007.0637      46020.1     373816.8 -11.6574 -13.9316      8.296  19 115 186.1355396 +65.5123566  -4.21    0.640
       162   1483.0525   1001.0000   1482.0865   1008.9873   1482.3597   1009.0553      22680.9     226806.7 -10.8892 -13.3891      7.350  19  89 185.6102531 +65.5325331  -3.05    0.656
       163   2269.5889   1011.0000   2268.5048   1007.8492   2269.3713   1007.0106     58130.18     374196.3 -11.9110 -13.9327      3.787   3  78 186.1346460 +65.5095501  -8.54    0.623
       164    418.0770   1007.2902    418.0652   1007.1225    418.0456   1007.1669     10964.75     11466.33 -10.1000 -10.1486      1.533   0  49 184.8977983 +65.5552708 -86.12    0.063
       165   1482.5752   1014.0000   1481.1975   1009.9815   1482.5730   1008.8747     41486.39     414820.8 -11.5448 -14.0447      4.374   3  88 185.6091637 +65.5289479  -9.73    0.696
       166   1674.5669   1011.0000   1673.0946   1019.5071   1674.1839   1019.5914     21320.95     213198.2 -10.8220 -13.3220      7.351  19  97 185.7375643 +65.5250109  -2.16    0.653
       167   1608.2947   1021.9012   1608.2926   1021.7823   1608.3154   1021.8977     7848.585     8531.596  -9.7370  -9.8276      1.508   0  62 185.6926538 +65.5236528 -79.05    0.042
       168   3042.9246   1021.5950   3042.8956   1021.5416   3042.8713   1021.5484     3674.736     3734.244  -8.9131  -8.9305      1.512   0  54 186.6492376 +65.4849807 -78.92    0.085
       169   1341.0524   1038.3298   1341.0731   1038.0912   1341.0609   1038.2601     46605.91     45124.07 -11.6711 -11.6360      1.550   0  52 185.5132029 +65.5256598  80.13    0.026
       170   1101.6945   1041.6183   1101.7148   1041.5333   1101.6741   1041.5821     5590.209     5961.764  -9.3686  -9.4384      1.520   0  67 185.3531005 +65.5304399 -75.15    0.068
       171   2425.6938   1055.3315   2425.7030   1055.1675   2425.7024   1055.1884     17628.26     18248.43 -10.6155 -10.6531      1.560   0 114 186.2358224 +65.4930677 -87.45    0.030
       172   1000.5842   1056.0748   1000.5858   1055.9586   1000.5924   1056.0212     5058.331      5551.77  -9.2600  -9.3611      1.509   0  56 185.2847228 +65.5287913 -76.98    0.075
       173   1880.5613   1077.1334   1880.5733   1076.9558   1880.5794   1077.0432     19005.37     19669.88 -10.6972 -10.7345      1.536   0  61 185.8709850 +65.5014845 -79.97    0.032
       174   1590.4236   1101.1620   1590.3706   1101.0121   1590.3806   1101.0584     4207.369     4548.047  -9.0600  -9.1446      1.534   0  53 185.6759680 +65.5021691 -54.92    0.049
       175   3055.9558   1110.3446   3055.9205   1110.2370   3055.8913   1110.2403     3276.889     3591.282  -8.7887  -8.8881      1.508   0  59 186.6516847 +65.4600851 -88.86    0.106
       176   1645.4337   1140.0465   1645.4378   1139.8686   1645.4411   1139.9715     15368.53     15599.97 -10.4666 -10.4828      1.501   0  65 185.7103259 +65.4900408 -77.41    0.035
       177   2430.3962   1137.7125   2430.3833   1137.5435   2430.3737   1137.6496     10846.35      10888.4 -10.0882 -10.0924      1.557   0  37 186.2335369 +65.4701668 -51.78    0.020
       178   1353.6378   1157.7041   1353.6185   1157.5490   1353.6105   1157.6618     10984.77     11079.22 -10.1020 -10.1113      1.536   0  37 185.5146559 +65.4923221 -58.55    0.031
       179   3012.5281   1172.3379   3012.5219   1172.1952   3012.5232   1172.2253     8221.317     8743.937  -9.7874  -9.8543      1.542   0  61 186.6184748 +65.4442212 -71.34    0.055
       180    570.2327   1189.1709    570.2470   1189.0748    570.2625   1189.1226     3337.775     3609.456  -8.8086  -8.8936      1.484   0  28 184.9900215 +65.5016130  83.66    0.063
       181   2368.3604   1207.6409   2368.4117   1207.3866   2368.4129   1207.5600     108387.2     103671.6 -12.5874 -12.5391      1.583   0  79 186.1876668 +65.4525224  69.12    0.039
       182    464.1363   1209.4911    464.1558   1209.2412    464.1576   1209.4772     74405.14      68915.3 -12.1790 -12.0958      1.556   0  77 184.9181109 +65.4982845  71.09    0.043
       183   3103.3186   1203.2439   3103.2878   1203.1874   3103.2877   1203.1589     3481.552     3985.723  -8.8544  -9.0013      2.473   0  35 186.6766465 +65.4330414 -60.94    0.406
       184     78.9279   1202.2262     78.9673   1202.1243     78.9472   1202.1434     4466.048      4734.28  -9.1248  -9.1881      1.499   0  51 184.6611630 +65.5083643  88.59    0.053
       185    837.7629   1216.5588    837.7940   1216.3472    837.7922   1216.5653     31280.57      29487.7 -11.2382 -11.1741      1.551   0  36 185.1671439 +65.4880866  62.69    0.022
       186   2898.2788   1227.0366   2898.3054   1226.8048   2898.3147   1226.9739     39815.39        39678 -11.5001 -11.4964      1.547   0  97 186.5387518 +65.4323999  81.75    0.018
       187    638.0000   1251.4039    642.9597   1250.9172    642.5124   1250.4833     32834.82     327810.2 -11.2908 -13.7891      3.254   3 130 185.0319701 +65.4828949  89.28    0.627
       188    647.0000   1250.5350    642.3864   1250.8706    642.5351   1250.4402     32479.43     313913.6 -11.2790 -13.7420      3.527   3  79 185.0380217 +65.4829373  81.81    0.606
       189   2397.0945   1239.8905   2397.0946   1239.7508   2397.0861   1239.9297     11001.13     11026.93 -10.1036 -10.1061      1.490   0  20 186.2046782 +65.4428276 -69.08    0.048
       190    642.6007   1244.9240    642.9870   1250.9811    642.5494   1250.6339      29193.7     274711.8 -11.1632 -13.5972      5.695   3 188 185.0353840 +65.4845879  -6.15    0.646
       191    414.4972   1267.9144    414.5274   1267.6566    414.5289   1267.9208     184014.3     173776.1 -13.1621 -13.1000      1.567   0  27 184.8819543 +65.4831682  64.98    0.045
       192    642.5535   1255.0000    642.6450   1250.6941    642.5456   1250.5713     47483.22     311948.5 -11.6914 -13.7352      4.506   3 196 185.0348176 +65.4817989  -5.03    0.653
       193     92.9493   1263.5704     92.9686   1263.3407     93.0038   1263.5644     41965.36      39737.8 -11.5572 -11.4980      1.545   0  36 184.6675120 +65.4910848  75.00    0.035
       194   1900.8658   1267.3207   1900.8647   1267.1220   1900.8802   1267.2709     20645.52     19919.96 -10.7871 -10.7482      1.526   0  59 185.8727390 +65.4483597 -74.11    0.032
       195   1060.0854   1290.6488   1060.1210   1290.3869   1060.1516   1290.6889     186986.7     166677.7 -13.1795 -13.0547      1.566   0  61 185.3113227 +65.4624805  67.75    0.045
       196    926.5764   1274.8593    926.5477   1274.7605    926.5465   1274.7867     2813.346     2906.357  -8.6231  -8.6584      1.488   0  40 185.2231938 +65.4699280 -32.67    0.056
       197    899.6282   1277.8442    899.6638   1277.7633    899.6389   1277.7853     3557.077     3736.821  -8.8777  -8.9313      1.477   0  64 185.2050608 +65.4697163  -7.42    0.022
       198    271.4079   1322.0222    271.4150   1321.7996    271.4071   1321.9240     36421.93     36460.62 -11.4034 -11.4046      1.527   0  85 184.7837169 +65.4712062  79.09    0.033
       199    160.7561   1331.3748    160.7848   1331.1337    160.7663   1331.3858     84367.67     81419.46 -12.3154 -12.2768      1.567   0  52 184.7094227 +65.4709122  64.09    0.044
       200    341.3284   1329.5814    341.3534   1329.3461    341.3781   1329.5486     66654.38     63079.37 -12.0596 -11.9997      1.582   0  79 184.8299788 +65.4676428  62.42    0.037
       201    204.0408   1334.1788    204.0447   1333.9783    204.0239   1334.0867     23559.75      23246.5 -10.9304 -10.9159      1.522   0  40 184.7381623 +65.4692414  78.49    0.036
       202    474.3182   1344.4476    474.3195   1344.2711    474.3269   1344.4093     16337.27      16180.8 -10.5329 -10.5225      1.553   0  47 184.9179100 +65.4606908  69.47    0.015
       203   1976.4336   1351.3933   1976.4324   1351.2249   1976.4332   1351.2670     16889.66     17628.44 -10.5691 -10.6155      1.538   0  80 185.9177963 +65.4231573 -69.05    0.026
       204   1997.2551   1362.8661   1997.2834   1362.6276   1997.3159   1362.8602     61120.37     57642.58 -11.9655 -11.9019      1.537   0  63 185.9309254 +65.4194445  77.08    0.032
       205   2692.3987   1370.6335   2692.4557   1370.3843   2692.4488   1370.5461     107007.2     102916.4 -12.5735 -12.5312      1.582   0 111 186.3922413 +65.3985476  66.54    0.040
       206   2230.9319   1389.2557   2230.9783   1388.9913   2230.9492   1389.3653     196750.6       161514 -13.2348 -13.0205      1.548   0  60 186.0845605 +65.4060020  64.82    0.042
       207    617.4650   1388.2882    617.4455   1388.1472    617.4677   1388.4327     69423.57     62626.33 -12.1038 -11.9919      1.556   3  60 185.0110363 +65.4454421 -23.27    0.050
       208    615.9120   1395.0327    615.8551   1395.0458    615.8610   1395.0816     37817.66     40673.24 -11.4442 -11.5233      1.596   3  66 185.0096458 +65.4436085  12.92    0.014
       209   2647.4177   1392.6729   2647.4100   1392.5932   2647.4144   1392.6083      3741.01     3841.404  -8.9325  -8.9612      1.531   0  50 186.3609059 +65.3937123 -52.39    0.050
       210    546.3354   1398.5159    546.3008   1398.4403    546.3164   1398.4772     4747.548     5147.739  -9.1912  -9.2790      1.511   0  50 184.9631025 +65.4441614 -70.55    0.058
       211   1473.2563   1419.4069   1473.2910   1419.1652   1473.3212   1419.3531     70999.83     72105.47 -12.1281 -12.1449      1.563   0  56 185.5790441 +65.4170016  69.56    0.039
       212   1382.3608   1419.4869   1382.3665   1419.4916   1382.3780   1419.4684     3362.413     3660.256  -8.8166  -8.9088      2.605   0  39 185.5185768 +65.4191866  85.68    0.257
       213   1115.5876   1423.7772   1115.5984   1423.5651   1115.6052   1423.7350     30760.24     30939.03 -11.2200 -11.2263      1.529   0  29 185.3408237 +65.4243375  60.86    0.023
       214   2567.6343   1427.3556   2567.6528   1427.1424   2567.5829   1427.2805     40495.13     40649.46 -11.5185 -11.5226      1.559   0  61 186.3056459 +65.3863384  88.94    0.029
       215   1442.9034   1454.1365   1442.9292   1453.8902   1442.9512   1454.1363     85418.63      77316.8 -12.3289 -12.2207      1.528   0  46 185.5568246 +65.4081313  70.61    0.036
       216   1824.6318   1466.5725   1824.6606   1466.3414   1824.6647   1466.5506     48921.82      47952.5 -11.7238 -11.7020      1.567   0  38 185.8097959 +65.3951961  73.54    0.038
       217   2014.6343   1475.6313   2014.6372   1475.5310   2014.6051   1475.5319     3639.629     3932.142  -8.9026  -8.9866      1.499   0  48 185.9354374 +65.3878067  62.76    0.006
       218    899.7863   1487.6367    899.7987   1487.4328    899.8373   1487.6113     25420.94     24435.53 -11.0130 -10.9701      1.532   0  45 185.1936841 +65.4116332  80.52    0.023
       219    853.7986   1511.1240    853.8352   1510.8731    853.8062   1511.1640     419243.7     489696.4 -14.0562 -14.2248      1.619   0  50 185.1618110 +65.4061724  61.69    0.045
       220   2524.7683   1511.0609   2524.7904   1510.8704   2524.7843   1511.0062      17961.7     18258.71 -10.6359 -10.6537      1.523   0  46 186.2716801 +65.3643816 -87.76    0.035
       221    192.0262   1512.8792    192.0336   1512.6853    192.0417   1512.8629     13550.74     13735.66 -10.3299 -10.3446      1.513   0  29 184.7212600 +65.4199899 -20.88    0.009
       222    428.0807   1514.4564    428.0826   1514.3157    428.0491   1514.3481     7515.161     7934.299  -9.6898  -9.7488      1.501   0  75 184.8783430 +65.4145981 -52.84    0.017
       223   3017.9500   1525.4133   3017.9887   1525.1264   3017.9516   1525.1941     10252.63     10308.22 -10.0271 -10.0330      1.612   0  72 186.5975414 +65.3465236  73.56    0.141
       224   2126.1455   1554.5380   2126.1449   1554.3875   2126.1492   1554.4357     9318.313     9508.759  -9.9233  -9.9453      1.516   0  54 186.0044990 +65.3630716 -67.78    0.062
       225    296.3541   1557.2070    296.3710   1557.0166    296.3883   1557.0987     19110.65     19333.34 -10.7032 -10.7158      1.532   0  59 184.7884965 +65.4055421  78.05    0.008
       226   1772.3942   1564.6364   1772.3843   1564.4796   1772.3972   1564.6047      13650.9     14422.42 -10.3379 -10.3976      1.521   0  34 185.7691423 +65.3693933 -61.50    0.029
       227   1195.4934   1569.4207   1195.4702   1569.2884   1195.4908   1569.3735     8526.068     9100.438  -9.8269  -9.8977      1.524   0  67 185.3857476 +65.3821506 -75.13    0.049
       228    562.2633   1581.7476    562.2959   1581.5131    562.3113   1581.7128     57960.72     56308.42 -11.9078 -11.8764      1.548   0  50 184.9641421 +65.3930744  63.58    0.033
       229   2529.8567   1581.3771   2529.8920   1581.1429   2529.9218   1581.2959     54251.25     51194.76 -11.8360 -11.7731      1.565   0  93 186.2704243 +65.3448055  77.37    0.036
       230    531.6491   1592.5713    531.6733   1592.3137    531.6661   1592.6356     273853.4     244090.8 -13.5938 -13.4689      1.572   0  89 184.9432196 +65.3907403  60.83    0.043
       231   1618.0143   1587.8672   1618.0441   1587.6355   1618.0559   1587.8687     37895.23     35939.31 -11.4465 -11.3889      1.511   0  34 185.6652757 +65.3668294  76.53    0.036
       232   2343.3284   1580.2180   2343.3279   1580.1382   2343.3364   1580.1659     3782.428     4073.313  -8.9444  -9.0249      1.513   0  48 186.1468788 +65.3501952 -76.54    0.024
       233   1831.6172   1584.9065   1831.4011   1585.0150   1831.3668   1585.0520     3974.008     4785.322  -8.9981  -9.1998      2.022   0  50 185.8072130 +65.3622859  39.76    0.229
       234     65.4283   1584.9011     65.4100   1584.7637     65.4266   1584.8245     5925.664     6069.708  -9.4318  -9.4579      1.475   0  46 184.6334402 +65.4026279 -82.75    0.076
       235   2606.7017   1579.9857   2606.6181   1580.0256   2606.6488   1579.9801     3060.519      3360.54  -8.7145  -8.8160      3.218   0  44 186.3214307 +65.3430723 -30.08    0.159
       236   1737.2050   1590.4158   1737.2208   1590.2081   1737.2283   1590.3319     21015.36      21591.1 -10.8063 -10.8357      1.544   0  66 185.7442297 +65.3631485 -82.82    0.032
       237    221.0435   1700.8739    230.1842   1700.9804    229.2799   1701.7290     151636.5      1387897 -12.9520 -15.3559      8.079   1  87 184.7312318 +65.3673154  86.36    0.517
       238    242.2176   1699.3857    230.6596   1700.9289    233.5544   1700.4680     146835.5      1084559 -12.9171 -15.0881     13.520   1 132 184.7453774 +65.3672888  84.05    0.575
       239   2223.6970   1621.1057   2223.7381   1620.8542   2223.7386   1621.0897     79067.09     72506.28 -12.2450 -12.1509      1.535   0  83 186.0649648 +65.3420877  68.94    0.031
       240   2052.1274   1615.5885   2052.1541   1615.3904   2052.1871   1615.5640     23966.18      23001.9 -10.9490 -10.9044      1.532   0  42 185.9515798 +65.3481253 -89.39    0.022
       241   2987.5032   1622.4695   2987.4924   1622.3165   2987.4932   1622.4008     12823.95     13653.68 -10.2701 -10.3381      1.556   0  93 186.5706833 +65.3205872 -68.94    0.037
       242   1281.8063   1625.3546   1281.8300   1625.1943   1281.8329   1625.3419     16108.13     15609.44 -10.5176 -10.4835      1.518   0  43 185.4398955 +65.3646256  77.75    0.025
       243    536.3215   1628.7560    536.3389   1628.5538    536.3441   1628.6746     24385.62     24651.96 -10.9678 -10.9796      1.535   0  59 184.9444474 +65.3806186  81.47    0.024
       244    441.0079   1636.8522    441.0040   1636.7242    440.9995   1636.7800     5237.763     5686.251  -9.2979  -9.3871      1.463   0  50 184.8806680 +65.3804244 -85.57    0.036
       245   2453.7529   1638.8464   2453.7346   1638.7092   2453.7355   1638.8132     7857.337     8232.977  -9.7382  -9.7889      1.494   0  19 186.2162439 +65.3309992 -70.11    0.057
       246   1528.6130   1642.3694   1528.6194   1642.1966   1528.6079   1642.3613      17169.9     16811.67 -10.5869 -10.5640      1.523   0  37 185.6027213 +65.3539539 -78.76    0.030
       247   1952.2760   1645.1548   1952.2897   1644.9663   1952.2835   1645.0592     19551.29     20271.39 -10.7279 -10.7672      1.518   0  67 185.8835433 +65.3425345 -73.78    0.018
       248   1835.7061   1665.6453   1835.7453   1665.3864   1835.7077   1665.6925     336676.2       298792 -13.8180 -13.6884      1.595   0 154 185.8050056 +65.3398486  63.82    0.043
       249   2700.1843   1674.6754   2700.2441   1674.4160   2700.2227   1674.6932     362104.3     385907.8 -13.8971 -13.9662      1.658   0  48 186.3770224 +65.3143037  59.99    0.040
       250   2623.4951   1665.9464   2623.5251   1665.7718   2623.5489   1665.9306     22554.65      23181.7 -10.8831 -10.9129      1.522   0  54 186.3268497 +65.3188486 -84.52    0.032
       251   2567.2017   1673.1823   2567.2384   1672.9426   2567.2624   1673.1592     89689.68     86758.63 -12.3819 -12.3458      1.562   0  59 186.2891099 +65.3184030  64.97    0.025
       252   1687.9348   1670.0500   1687.9331   1669.8444   1687.9429   1669.9594     19939.79     20270.55 -10.7493 -10.7672      1.500   0  62 185.7067604 +65.3423527  80.39    0.009
       253    731.2990   1700.9106    731.3127   1700.6838    731.3314   1700.8506     34945.32     34472.83 -11.3585 -11.3437      1.529   0  52 185.0701973 +65.3563674  81.10    0.027
       254   1517.0120   1694.4778   1516.9978   1694.3450   1516.9775   1694.3978     7291.987     7402.795  -9.6571  -9.6735      1.491   0  67 185.5919658 +65.3398199 -52.23    0.026
       255    416.3650   1707.8440    416.3915   1707.6101    416.3988   1707.7680     47381.38     46423.71 -11.6890 -11.6669      1.530   0  86 184.8606623 +65.3612879  61.47    0.031
       256   1868.9751   1705.4877   1868.9750   1705.3484   1868.9490   1705.4065     6743.154     7115.076  -9.5722  -9.6304      1.488   0  37 185.8246268 +65.3279812 -56.22    0.048
       257   2233.5210   1732.2185   2233.5415   1732.0056   2233.5178   1732.1024     39676.42     40187.46 -11.4963 -11.5102      1.555   0  97 186.0644062 +65.3111036  80.92    0.025
       258   2271.4587   1724.2057   2271.4808   1724.1391   2271.4890   1724.1771     3019.764     3394.244  -8.6999  -8.8269      1.514   0  34 186.0900306 +65.3123100 -68.53    0.056
       259   2674.0542   1726.7485   2674.0599   1726.5850   2674.0748   1726.6407     12109.04     12169.79 -10.2078 -10.2132      1.505   0  62 186.3562616 +65.3006404 -59.41    0.042
       260    675.4277   1738.1259    675.4551   1737.9116    675.4732   1738.0541     43187.59     41890.95 -11.5884 -11.5553      1.529   0  71 185.0311305 +65.3472972  67.91    0.023
       261   2830.3569   1733.1884   2830.3329   1733.1187   2830.3573   1733.1595     3066.612     3182.285  -8.7166  -8.7568      1.509   0  24 186.4591879 +65.2944767 -62.75    0.060
       262   2162.5447   1750.8730   2162.5443   1750.7576   2162.5448   1750.8516     7357.184     7922.958  -9.6668  -9.7472      1.492   0  21 186.0162416 +65.3078218 -80.62    0.047
       263   1054.0258   1760.6088   1054.0512   1760.3776   1054.0768   1760.6645     64161.35     58639.45 -12.0182 -11.9205      1.540   0  54 185.2811348 +65.3325321  70.62    0.033
       264   2696.7007   1752.0027   2696.7286   1751.8807   2696.7237   1751.9408     3868.252     4115.618  -8.9688  -9.0361      1.494   0  30 186.3695546 +65.2930301 -34.31    0.064
       265   2513.4609   1762.8270   2513.4643   1762.7063   2513.4697   1762.7629     7186.135     7467.173  -9.6412  -9.6829      1.503   0  63 186.2476641 +65.2950982 -82.92    0.065
       266    346.2576   1769.4170    346.2644   1769.2651    346.2654   1769.2995     9715.668     10263.97  -9.9687 -10.0283      1.521   0 116 184.8109779 +65.3457171 -86.92    0.050
       267    574.7873   1777.4905    574.8177   1777.2524    574.7746   1777.5236     57712.31      52096.2 -11.9032 -11.7920      1.538   0  34 184.9622674 +65.3385964  65.39    0.042
       268   1239.4449   1780.0582   1239.4544   1779.9572   1239.4701   1780.0431     7913.414     8342.876  -9.7459  -9.8033      1.492   0  48 185.4029947 +65.3228144 -77.97    0.052
       269   1129.5399   1782.3708   1129.6295   1782.3187   1129.5854   1782.3661     10818.12     11560.36 -10.0854 -10.1574      1.607   0  28 185.3300011 +65.3247552 -51.29    0.104
       270   3033.5190   1789.8591   3033.5384   1789.6531   3033.5330   1789.7730     27967.75     28949.86 -11.1166 -11.1541      1.541   0  46 186.5895651 +65.2730165  87.16    0.011
       271   2735.0730   1786.0831   2735.0829   1785.9812   2735.0829   1786.0273     3521.239      3741.19  -8.8667  -8.9325      1.492   0  15 186.3926437 +65.2825396 -82.16    0.088
       272    787.3411   1795.0089    787.3129   1794.8918    787.3182   1794.9372     4107.643     4311.457  -9.0340  -9.0866      1.469   0  41 185.1023726 +65.3290662  80.88    0.029
       273   2289.2717   1799.5968   2289.2363   1799.5258   2289.2392   1799.5298     4763.302     5233.316  -9.1948  -9.2969      1.498   0  53 186.0970051 +65.2909898 -56.35    0.073
       274   3046.2783   1827.7323   3046.3237   1827.4734   3046.3425   1827.6744     95203.57     89552.67 -12.4466 -12.3802      1.570   0  65 186.5953778 +65.2621852  62.66    0.032
       275   2837.4414   1820.1227   2837.4451   1820.0032   2837.4563   1820.0625     6915.592     7751.354  -9.5996  -9.7234      1.518   0  46 186.4579915 +65.2702538 -62.49    0.044
       276   2560.7883   1821.4542   2560.7669   1821.3848   2560.7329   1821.3790     3674.891     4173.924  -8.9131  -9.0514      1.521   0  67 186.2751112 +65.2775955 -78.92    0.042
       277    634.8506   1830.3362    634.8217   1830.3770    634.8850   1830.3003     4048.963     5651.398  -9.0184  -9.3804      3.164   0  29 184.9993584 +65.3226538  -2.04    0.099
       278   2510.2756   1858.4059   2510.3217   1858.1502   2510.3650   1858.4605     200918.9     177573.9 -13.2576 -13.1234      1.580   0  71 186.2393116 +65.2687647  66.15    0.039
       279   1635.8015   1843.7087   1635.7970   1843.6532   1635.7597   1843.6546     3558.187     3719.821  -8.8781  -8.9263      1.499   0  46 185.6618731 +65.2956049  85.19    0.049
       280    502.3111   1856.2417    502.3137   1856.0766    502.3271   1856.1382      11309.1     11935.51 -10.1336 -10.1921      1.508   0  58 184.9101104 +65.3183525  84.00    0.044
       281    587.4550   1858.7689    587.4630   1858.6099    587.4688   1858.7259     10874.56     11117.99 -10.0910 -10.1151      1.508   0  53 184.9664429 +65.3158134  64.55    0.003
       282   1799.9283   1866.3240   1799.9351   1866.1009   1799.9369   1866.2349     24522.39     23906.25 -10.9739 -10.9463      1.521   0  61 185.7691406 +65.2852430  89.86    0.035
       283    459.0998   1886.4503    459.0922   1886.3511    459.0712   1886.4115     6082.324     6349.726  -9.4602  -9.5069      1.493   0  51 184.8799073 +65.3109116  -7.05    0.022
       284   1572.2919   1915.7727   1572.3125   1915.5891   1572.3095   1915.7313     19551.02      19339.1 -10.7279 -10.7161      1.505   0  72 185.6155900 +65.2772336  74.68    0.028
       285     73.6221   1917.3641     73.6380   1917.1903     73.5909   1917.2397     16004.32     16882.37 -10.5106 -10.5686      1.518   0  99 184.6227485 +65.3103592  88.45    0.024
       286    440.1019   1939.5189    440.1209   1939.2922    440.1733   1939.5346     46788.04     44148.44 -11.6753 -11.6123      1.541   0  16 184.8646075 +65.2966189  68.18    0.031
       287   2386.5276   1948.0052   2386.5467   1947.8799   2386.5544   1947.9462     9132.984     9421.455  -9.9015  -9.9353      1.506   0  50 186.1517685 +65.2473509 -53.63    0.032
       288   2716.1814   1949.0939   2716.1676   1948.9703   2716.1927   1948.9986     3590.942     3906.958  -8.8880  -8.9796      1.505   0  64 186.3692882 +65.2380167  85.64    0.051
       289   1774.1915   1957.3419   1774.1841   1957.2304   1774.1800   1957.2495     3654.735     3731.547  -8.9071  -8.9297      1.491   0  39 185.7466367 +65.2607131 -80.89    0.043
       290    666.8535   1969.6805    666.8647   1969.4843    666.8868   1969.6842     24749.77     23657.39 -10.9839 -10.9349      1.510   0  39 185.0132644 +65.2833671  67.59    0.023
       291   2353.6472   1978.4188   2353.6904   1978.1845   2353.6934   1978.3454     65276.75     62181.68 -12.0369 -11.9842      1.583   0 100 186.1281087 +65.2398261  66.23    0.023
       292   2225.0315   1986.7072   2225.0347   1986.6527   2225.0055   1986.6420     4219.455     4509.749  -9.0631  -9.1354      1.475   0  39 186.0426710 +65.2409600 -78.52    0.045
       293   2895.3413   2015.9945   2895.4032   2015.7503   2895.3920   2016.0261     481602.9     461801.2 -14.2067 -14.1611      1.677   0  58 186.4829471 +65.2144899  50.90    0.019
       294    957.0457   1999.1405    957.0541   1999.0015    957.0634   1999.0574     4827.001      5179.45  -9.2092  -9.2857      1.481   0  37 185.2037929 +65.2687244 -52.95    0.012
       295   1579.2083   2048.2471   1579.2293   2048.0430   1579.2345   2048.1126      28011.5     28166.69 -11.1183 -11.1243      1.521   0 101 185.6123859 +65.2404095  77.18    0.042
       296   2430.9011   2048.8967   2430.9059   2048.7102   2430.9179   2048.7681     18682.98     18931.48 -10.6786 -10.6930      1.511   0  77 186.1745542 +65.2182614 -67.74    0.024
       297    457.4879   2053.1130    457.4418   2052.9027    457.4487   2052.9866     15473.04     16009.62 -10.4739 -10.5110      1.533   0  69 184.8703390 +65.2647882 -60.97    0.051
       298   2680.8127   2063.5562   2680.8317   2063.4930   2680.7831   2063.4726     3676.933     3980.044  -8.9137  -8.9997      1.484   0  57 186.3383677 +65.2073657  76.98    0.039
       299   2050.0403   2071.4976   2050.0382   2071.3726   2050.0130   2071.4060     7296.969     7568.182  -9.6579  -9.6975      1.499   0  63 185.9218650 +65.2220940 -50.67    0.031
       300   3128.0000   2107.3496   3132.5657   2108.4063   3133.0597   2106.4626      38030.8     380133.2 -11.4503 -13.9498      3.608   3 108 186.6299316 +65.1825736 -88.19    0.602
       301    779.1694   2118.9800    773.9641   2119.4744    774.4380   2119.1214      58895.6     567180.2 -11.9252 -14.3843      5.924   3 118 185.0797043 +65.2395470  79.21    0.565
       302   3139.0000   2106.0066   3132.4585   2107.4505   3132.6981   2106.4474     31877.43     316253.2 -11.2587 -13.7501      5.533   3 129 186.6372641 +65.1826252  77.30    0.531
       303    769.1763   2120.5286    775.4609   2119.9663    773.9395   2119.2656     40089.16     393599.3 -11.5076 -13.9876      3.712   3  55 185.0730158 +65.2393402 -80.14    0.631
       304   2758.8562   2097.1724   2758.7195   2097.0239   2758.8375   2097.1577     4111.205     4345.255  -9.0349  -9.0950      2.544   2  40 186.3875598 +65.1959016 -54.94    0.147
       305   3133.1711   2099.0000   3132.5317   2106.9170   3132.9162   2106.6691     22297.17       222077 -10.8706 -13.3663      7.103  19 113 186.6339126 +65.1847301  -3.74    0.678
       306   3132.9861   2111.0000   3132.0031   2107.3288   3132.9628   2106.3293     46633.35     465931.7 -11.6717 -14.1708      4.285   3 105 186.6329606 +65.1814205  -8.47    0.634
       307    551.2462   2106.9612    551.2684   2106.8352    551.2799   2106.9024     9042.119     9951.075  -9.8907  -9.9947      1.475   0  58 184.9296172 +65.2478655  72.19    0.030
       308    774.4883   2112.0000    774.9819   2119.8604    774.0001   2119.3132     48954.48     440502.6 -11.7245 -14.1099      8.949  19  47 185.0769797 +65.2415837  -5.74    0.680
       309    774.0731   2124.0000    773.3248   2120.8759    774.5294   2119.0801      57430.3     510206.2 -11.8979 -14.2694      5.051   3  72 185.0760689 +65.2382703  -7.59    0.697
       310     91.0000   2144.4312     95.5808   2144.3445     95.5559   2143.6357     30606.52     305036.5 -11.2145 -13.7109      3.448   3  96 184.6232843 +65.2471029 -88.81    0.606
       311    101.0000   2143.5100     95.4214   2144.4503     95.4334   2143.5931      24917.4     248860.1 -10.9913 -13.4899      4.876   3 227 184.6299450 +65.2471558  80.67    0.636
       312   1679.8322   2164.5552   1681.1529   2164.5102   1684.4424   2163.9152     37609.39     375085.9 -11.4382 -13.9353      2.982   3 115 185.6719641 +65.2057452  88.15    0.581
       313     95.6485   2138.0000     95.0645   2144.0517     95.4952   2143.7782     21098.64     210983.6 -10.8106 -13.3106      4.846   3 131 184.6266706 +65.2487905  -4.28    0.620
       314   1690.0000   2163.5566   1684.1942   2164.5030   1684.3660   2163.9118     30172.67     300861.2 -11.1990 -13.6959      3.917   3  88 185.6787313 +65.2057689  81.25    0.516
       315     95.5871   2148.0000     95.5660   2143.5800     95.5585   2143.5924     35989.74     286937.4 -11.3904 -13.6445      4.003   3  80 184.6261467 +65.2460215  -7.45    0.635
       316   1685.0786   2156.8579   1684.0271   2164.4204   1684.6278   2163.8748        31758     309501.5 -11.2546 -13.7267      7.370  19  72 185.6758813 +65.2077445  -7.93    0.675
       317    777.3010   2166.5400    777.3334   2166.5910    777.3284   2166.5695     7170.219     7658.199  -9.6388  -9.7103      3.946   0  39 185.0759475 +65.2264199 -24.13    0.324
       318   1684.5592   2169.0000   1683.5458   2164.3830   1684.7157   2163.8174     44048.17     438900.9 -11.6098 -14.1059      4.907   3 109 185.6748195 +65.2043981  -5.78    0.663
       319    349.9430   2217.0881    356.0326   2215.8900    356.2486   2215.4180     57453.91     574516.4 -11.8983 -14.3983      5.420   3 127 184.7909386 +65.2216452 -83.60    0.509
       320   2495.5281   2190.8250   2495.5705   2190.5640   2495.5616   2190.7542     224996.5     224546.1 -13.3804 -13.3783      1.565   0  72 186.2079749 +65.1772743  61.11    0.036
       321    363.4354   2215.1091    355.6738   2215.4142    355.9075   2215.4949     52039.01     520341.7 -11.7908 -14.2907     11.145   3 140 184.7999544 +65.2219102  88.51    0.591
       322    308.5743   2185.1553    308.5845   2184.9377    308.5835   2185.0491     34891.76     36143.25 -11.3568 -11.3951      1.520   0 100 184.7651866 +65.2313546  69.76    0.026
       323   2383.3132   2185.6201   2383.3184   2185.4800   2383.3393   2185.5275     10471.82     10868.32 -10.0501 -10.0904      1.535   0  87 186.1344077 +65.1817441 -52.93    0.031
       324    615.9299   2203.3965    615.9566   2203.1630    615.9774   2203.4437     76207.32     68364.65 -12.2050 -12.0871      1.536   0  49 184.9673936 +65.2197596  65.64    0.030
       325   1638.8639   2787.2810   1638.8934   2787.0308   1638.8855   2787.2857     109339.5     98531.14 -12.5969 -12.4839      1.532   0  68 185.6084869 +65.0344646  68.06    0.034
       326   2976.2231   2684.3354   2976.5721   2684.2811   2976.5374   2684.4507     37526.89     38937.54 -11.4359 -11.4759      1.475   1  43 186.4909569 +65.0275227  57.14    0.154
       327   2962.6060   3081.2979   2962.5833   3081.2294   2962.5709   3081.2357      3874.36     4257.176  -8.9705  -9.0728      1.485   0  51 186.4554739 +64.9182230 -53.03    0.074
       328    823.8057   2923.7227    829.8709   2922.9351    829.6321   2922.6624     55803.78     557922.6 -11.8667 -14.3664      6.513   3  83 185.0666260 +65.0157376  83.74    0.580
       329    740.1022   2741.6240    740.1098   2741.4706    740.1469   2741.5907     11280.06     11887.11 -10.1308 -10.1877      1.482   0  56 185.0212212 +65.0680060 -88.34    0.033
       330   1602.4828   2878.6140   1602.4670   2878.5153   1602.4693   2878.5514     5700.478     6158.302  -9.3898  -9.4737      1.500   0  55 185.5793532 +65.0100846 -80.85    0.040
       331    120.0000   2861.4246    118.9369   2861.5301    114.1754   2861.6802     21894.28     218919.8 -10.8508 -13.3507      2.894   3 220 184.6079695 +65.0478882  87.34    0.719
       332    825.9100   2727.1799    825.8869   2727.0450    825.8756   2727.0721     3538.591     3819.742  -8.8721  -8.9551      1.452   0  47 185.0783430 +65.0701093 -82.24    0.113
       333    245.9603   2670.3613    245.9588   2670.2166    245.9824   2670.3519     14564.12     14280.92 -10.4082 -10.3869      1.488   0  61 184.6999846 +65.0982511  84.52    0.014
       334    167.9310   2724.5132    167.8900   2724.4647    167.8543   2724.4912     3803.334     4098.787  -8.9504  -9.0316      1.459   0  47 184.6460366 +65.0848457 -89.47    0.097
       335    601.9987   3093.1704    602.0111   3092.9993    602.0374   3093.0538     15208.22     15793.46 -10.4552 -10.4962      1.474   0  83 184.9125739 +64.9736598  82.98    0.022
       336   1540.0669   2583.9719   1540.0906   2583.9176   1540.0973   2583.9564     3414.562     3677.356  -8.8333  -8.9138      1.463   0  53 185.5554269 +65.0931324 -70.04    0.019
       337   1593.5070   2651.0164   1593.5071   2650.8279   1593.5166   2650.9223     17457.34     17914.54 -10.6049 -10.6330      1.496   0  51 185.5866456 +65.0732784 -84.19    0.034
       338    918.6560   3092.0327    918.6811   3091.8059    918.6789   3092.0799     78838.52     69527.02 -12.2418 -12.1054      1.507   0  74 185.1198750 +64.9670239  61.24    0.034
       339    122.4873   2857.4861    114.4550   2861.5465    122.3375   2857.4089     23042.12     15463.47 -10.9063 -10.4733      4.667   3  50 184.6097911 +65.0489292 -63.42    0.332
       340    951.5012   2675.8101    951.4935   2675.7306    951.5047   2675.7814     5665.391     5992.111  -9.3831  -9.4439      1.473   0  63 185.1635853 +65.0815175 -88.21    0.057
       341   1465.0898   2639.2534   1465.0986   2639.0655   1465.0735   2639.1465     19400.39     19406.67 -10.7195 -10.7199      1.499   0  72 185.5029995 +65.0796493  38.12    0.008
       342   2123.2786   2546.6802   2123.3027   2546.4927   2123.3008   2546.6449     21135.85     20778.02 -10.8125 -10.7940      1.521   0  75 185.9407117 +65.0887774  81.72    0.022
       343    299.8062   3089.7969    299.7964   3089.7281    299.7719   3089.7646     3563.944     3819.665  -8.8798  -8.9551      1.423   0  64 184.7148685 +64.9809595  56.29    0.036
       344   1510.6777   2753.3071   1510.6426   2753.2021   1510.6092   2753.2356     7053.069     7460.922  -9.6209  -9.6820      1.495   0  60 185.5263924 +65.0469883 -61.28    0.018
       345   1486.8795   2816.3845   1486.9140   2816.1482   1486.9082   2816.4525     227009.9     197678.8 -13.3901 -13.2399      1.545   0  43 185.5071789 +65.0301082  62.11    0.037
       346   2733.1423   2574.0225   2733.2433   2573.6951   2733.2360   2573.8148     20413.09     20258.81 -10.7748 -10.7665      1.584   0  88 186.3390783 +65.0648308  58.53    0.130
       347   1788.1997   2570.7109   1788.2222   2570.4904   1788.2312   2570.6736     36452.39     35271.31 -11.4043 -11.3686      1.537   0  79 185.7192106 +65.0906798  64.85    0.022
       348    101.3431   2975.8047    101.3316   2975.6418    101.3562   2975.7167     14620.64     15095.03 -10.4124 -10.4471      1.487   0  93 184.5902760 +65.0165768  84.87    0.025
       349    483.4872   2550.8821    483.4729   2550.7776    483.4836   2550.8283     3632.731     3938.919  -8.9006  -8.9884      1.488   0  43 184.8622488 +65.1263758 -10.27    0.055
       350   1568.2472   2519.4170   1568.1833   2519.3116   1568.1743   2519.3232     4668.361     5007.625  -9.1729  -9.2491      1.517   0  65 185.5776835 +65.1103083 -69.03    0.060
       351    471.9409   2817.5610    471.9305   2817.4881    471.9032   2817.4925     2785.981     2943.947  -8.6124  -8.6723      1.465   0  41 184.8412217 +65.0527630 -80.17    0.087
       352    828.6927   3111.9087    828.7020   3111.7023    828.7094   3111.8202     29425.05     29571.27 -11.1718 -11.1772      1.499   0  84 185.0599675 +64.9635247  66.62    0.026
       353   2474.8538   2707.9729   2474.8768   2707.7608   2474.8411   2707.9394     31757.86     30467.77 -11.2546 -11.2096      1.500   0 106 186.1611386 +65.0348693  79.68    0.018
       354    764.0325   2629.4580    764.0387   2629.2430    764.0991   2629.4233     48167.84     46372.11 -11.7069 -11.6656      1.509   0  47 185.0428097 +65.0985372  58.47    0.026
       355    649.9396   2624.5935    650.1115   2624.7736    650.0632   2624.7331     3045.191     3167.706  -8.7090  -8.7519      3.508   0  38 184.9680254 +65.1023830  72.41    0.180
       356   1925.1843   3116.9866   1925.2181   3116.7441   1925.2424   3116.9727     102940.1     98553.19 -12.5315 -12.4842      1.527   0  35 185.7763889 +64.9361201  53.90    0.034
       357    985.5377   2509.5107    985.5461   2509.2877    985.5299   2509.3907      45790.8     48453.26 -11.6519 -11.7133      1.548   0  32 185.1949202 +65.1267850  76.04    0.035
       358   1002.3101   2591.0242   1002.3210   2590.8223   1002.3039   2590.9146      27151.9     27767.06 -11.0845 -11.1088      1.494   0  79 185.2015492 +65.1038376  73.46    0.022
       359   1512.1945   2445.7344   1512.2279   2445.4941   1512.2596   2445.6776     117726.7     113496.9 -12.6772 -12.6375      1.538   0  47 185.5450784 +65.1320608  61.83    0.036
       360   1346.0000   2254.6282   1340.5208   2255.5021   1341.0779   2254.8353     33611.94     328833.9 -11.3162 -13.7924      4.701   3 136 185.4465362 +65.1889429  79.28    0.610
       361   1340.6523   2259.0000   1340.4096   2256.2516   1340.8608   2254.9578     47226.91     290911.5 -11.6855 -13.6594      3.755   3 102 185.4427611 +65.1878604  -6.47    0.647
       362    362.0427   2886.5295    362.0529   2886.3544    362.0931   2886.4960      17310.8     17000.18 -10.5958 -10.5761      1.497   0  71 184.7656450 +65.0359707  67.45    0.020
       363   1867.2498   2438.7212   1867.2576   2438.5344   1867.2545   2438.6520     16874.97     16847.16 -10.5681 -10.5663      1.512   0  78 185.7790546 +65.1252032 -83.33    0.035
       364    115.0321   2854.9260    114.5230   2861.9630    114.5579   2861.7276     25077.74     250772.8 -10.9982 -13.4982      6.432   3 140 184.6050174 +65.0497886  -2.83    0.765
       365   1302.7804   2422.2092   1302.7522   2421.9975   1302.7560   2422.1839      21330.8     20371.71 -10.8225 -10.7726      1.516   0  40 185.4085792 +65.1435902 -63.10    0.044
       366   1336.0000   2255.5200   1340.7834   2255.9138   1341.0010   2255.0093     36567.65     316838.2 -11.4077 -13.7521      4.146   3  99 185.4398903 +65.1889343 -87.76    0.635
       367   2765.8557   2575.5898   2765.9024   2575.3423   2765.8583   2575.5838     130629.5     120199.8 -12.7901 -12.6998      1.546   0  39 186.3604195 +65.0634886  66.63    0.032
       368    730.3288   2847.4746    730.2910   2847.3800    730.3087   2847.4105     5791.148     6125.508  -9.4069  -9.4679      1.476   0  46 185.0092991 +65.0389106  78.28    0.025
       369    131.6850   2482.2354    131.7113   2482.1063    131.7004   2482.1399     5537.569     5948.324  -9.3583  -9.4360      1.494   0  41 184.6338549 +65.1526978  70.99    0.032
       370   1184.9266   2846.4758   1184.9441   2846.3216   1184.9718   2846.4699     14755.68      14670.2 -10.4224 -10.4161      1.502   0  42 185.3075319 +65.0289254  72.48    0.013
       371   1315.0614   2511.4607   1315.0616   2511.3094   1315.0300   2511.3342     10452.23     10722.25 -10.0480 -10.0757      1.498   0 111 185.4116374 +65.1185981 -84.32    0.059
       372    393.6736   2465.2590    393.6580   2465.1899    393.6296   2465.1970     3183.782     3432.514  -8.7574  -8.8390      1.481   0  64 184.8073884 +65.1519899 -81.09    0.023
       373   2185.0298   2485.4932   2185.0438   2485.3441   2185.0685   2485.4461     13519.92     13422.23 -10.3274 -10.3196      1.508   0  63 185.9850580 +65.1040867 -83.12    0.011
       374    557.7512   2509.7063    557.7749   2509.6262    557.7252   2509.6173     5494.905     6309.529  -9.3499  -9.5000      1.563   0  68 184.9132479 +65.1361911  87.88    0.089
       375   1402.7296   2503.3088   1402.7259   2503.1693   1402.7047   2503.2004     10444.34     10940.38 -10.0472 -10.0976      1.503   0  85 185.4697646 +65.1187668 -81.49    0.027
       376   1759.9099   2810.5652   1759.9390   2810.3451   1759.9747   2810.5331     49671.05     47070.92 -11.7403 -11.6819      1.530   0  83 185.6864561 +65.0250310  70.90    0.030
       377   2032.7268   2473.2454   2032.7468   2473.1448   2032.7195   2473.1694     4330.676     4565.159  -9.0914  -9.1486      1.501   0  51 185.8857450 +65.1114301 -58.71    0.066
       378     97.7396   2805.3245     97.7611   2805.0851     97.7803   2805.4496       202357     162872.9 -13.2653 -13.0296      1.552   0  62 184.5960238 +65.0638779  60.91    0.039
       379   1110.7053   2450.1001   1110.7403   2449.9813   1110.7395   2450.0285     5481.826     5874.667  -9.3473  -9.4225      1.460   0  63 185.2805582 +65.1403626  81.64    0.063
       380   1631.0536   2389.6389   1631.0366   2389.5111   1631.0220   2389.5366     5687.587     5821.464  -9.3873  -9.4126      1.478   0  65 185.6265651 +65.1446767 -85.17    0.024
       381    277.4133   2422.2617    277.4310   2422.0373    277.4198   2422.2705     94459.28     86541.02 -12.4381 -12.3431      1.548   0  85 184.7328707 +65.1663256  61.37    0.039
       382   2655.0110   2355.6289   2655.0648   2355.3647   2655.0291   2355.6560     248816.8     223256.6 -13.4897 -13.3720      1.569   0  62 186.3021463 +65.1273533  61.24    0.038
       383   1961.5087   2286.2507   1961.5048   2286.1090   1961.5103   2286.1535     4687.371     5097.518  -9.1773  -9.2684      1.493   0  32 185.8503164 +65.1649787 -72.06    0.030
       384   2024.1918   2368.7466   2024.1693   2368.6022   2024.1682   2368.6102     6885.987     7472.692  -9.5949  -9.6837      1.497   0  49 185.8865332 +65.1405518 -74.74    0.033
       385   2089.5901   2397.2695   2089.5935   2397.1109   2089.5859   2397.1876     13492.28     13699.83 -10.3252 -10.3418      1.523   0  71 185.9277958 +65.1309725 -72.50    0.038
       386   1269.6926   2286.6599   1269.6775   2286.5769   1269.6405   2286.5915     4844.451     5186.979  -9.2131  -9.2873      1.470   0  63 185.3944048 +65.1818878  86.85    0.017
       387   2492.3713   2278.1372   2492.3436   2278.0039   2492.3530   2278.0499     5118.523     5465.747  -9.2729  -9.3441      1.494   0  27 186.2002516 +65.1532232 -66.40    0.069
       388   1783.0063   2387.0496   1782.9895   2386.9301   1782.9695   2386.9900     4083.332     4436.507  -9.0275  -9.1176      1.467   0  39 185.7267285 +65.1416181 -81.31    0.087
       389   1586.5087   2356.8088   1586.4992   2356.6476   1586.5046   2356.7405     10286.14     10657.57 -10.0306 -10.0691      1.491   0  54 185.5991560 +65.1548545 -50.87    0.016
       390   1322.9987   2821.9749   1323.0051   2821.7958   1323.0297   2821.9078     21519.79     21785.42 -10.8321 -10.8454      1.491   0  57 185.3994220 +65.0324721  65.04    0.028
       391   1471.3850   2314.5828   1471.3676   2314.4555   1471.3836   2314.4812      3179.41     3555.172  -8.7559  -8.8772      1.487   0  35 185.5257660 +65.1693412  76.75    0.036
       392    218.1701   2304.4253    218.1857   2304.2051    218.2013   2304.3387     49479.71      49623.8 -11.7361 -11.7392      1.531   0  79 184.6995628 +65.2001886  68.94    0.027
       393   2522.6204   2350.0142   2522.6491   2349.8220   2522.6555   2349.9262     24547.12      25305.8 -10.9750 -11.0080      1.528   0  48 186.2154979 +65.1325317 -80.10    0.017
       394    786.5940   2346.7810    786.5862   2346.6463    786.5809   2346.7085     6816.837     7270.216  -9.5840  -9.6539      1.485   0  50 185.0725431 +65.1763077 -87.79    0.065
       395   2130.5718   2286.6116   2130.5682   2286.5017   2130.5449   2286.5322       5806.1     6392.631  -9.4097  -9.5142      1.497   0  49 185.9616109 +65.1605090 -77.95    0.072
       396   1787.2013   2302.8572   1787.2115   2302.7088   1787.2525   2302.7487      8999.76     10094.72  -9.8856 -10.0102      1.481   0 111 185.7345156 +65.1648039  71.09    0.027
       397   1827.8800   2304.5867   1827.8820   2304.3945   1827.8906   2304.6079     16589.33     16494.87 -10.5496 -10.5434      1.507   0  29 185.7612039 +65.1633022 -87.54    0.028
       398    884.5054   2291.3953    884.5083   2291.3226    884.4937   2291.2756     4134.419     5940.734  -9.0410  -9.4346      2.886   0  36 185.1400786 +65.1894549 -76.40    0.023
       399   2136.1252   2266.4468   2136.1875   2266.3825   2136.1717   2266.3807     3209.805     3337.899  -8.7662  -8.8087      1.519   0  57 185.9665205 +65.1659405  89.46    0.099
       400   3035.3704   2218.8831   3035.3801   2218.7693   3035.4062   2218.8347     8158.598     8650.444  -9.7790  -9.8426      1.479   0  74 186.5613283 +65.1544349 -74.93    0.043
       401   2565.0139   2231.3918   2565.0176   2231.2421   2565.0113   2231.3488     14036.84     13859.18 -10.3682 -10.3543      1.501   0  53 186.2510829 +65.1641658 -82.04    0.009
       402   3105.6079   2263.2412   3105.5876   2263.1192   3105.5898   2263.1659     6023.972     6593.816  -9.4497  -9.5478      1.495   0  40 186.6044557 +65.1401565 -80.56    0.050
       403   1341.1367   2248.7805   1340.5290   2255.4298   1341.0237   2252.5295     40147.14     113609.9 -11.5091 -12.6385      8.234   3  77 185.4436607 +65.1906772  -2.04    0.627
       404   2249.2732   2251.8884   2249.2666   2251.7428   2249.2735   2251.7909     10755.57     11080.45 -10.0791 -10.1114      1.506   0  75 186.0419311 +65.1669930 -52.23    0.027
       405   1416.2360   2232.2417   1416.2235   2232.1245   1416.2218   2232.1541      3721.12     3968.758  -8.9267  -8.9966      1.469   0  41 185.4941376 +65.1934569  76.36    0.044
       406    229.0696   2227.6443    229.0733   2227.4396    229.1203   2227.6050     27622.59     26804.59 -11.1032 -11.0705      1.521   0  79 184.7105315 +65.2212331  81.60    0.022
       407   3112.5479   2234.9099   3112.5894   2234.6581   3112.5954   2234.9724     143301.2     126522.8 -12.8906 -12.7554      1.545   0  50 186.6109663 +65.1477825  71.75    0.031
       408   1308.1580   2216.0464   1308.1856   2215.8059   1308.1905   2216.0831     61294.36     58078.67 -11.9686 -11.9100      1.516   0  41 185.4237600 +65.2005207  74.12    0.038
       409   2374.4773   2927.1589   2374.4858   2926.9878   2374.4784   2927.0576     18285.93     18717.91 -10.6553 -10.6806      1.519   0  80 186.0815590 +64.9769597 -74.89    0.019
       410    835.1362   2922.8455    829.3718   2922.6711    829.2756   2922.6085     53861.35     538588.2 -11.8282 -14.3281      7.029   3 121 185.0740997 +65.0157291  86.86    0.579
       411   1102.2507   2703.6951   1102.2704   2703.5420   1102.2986   2703.5932     9405.306     10189.53  -9.9334 -10.0204      1.488   0  73 185.2611056 +65.0703596 -83.44    0.030
       412   1996.1128   2938.3408   1996.0977   2938.1851   1996.0781   2938.2777     11799.81      12228.5 -10.1797 -10.2184      1.505   0  38 185.8334658 +64.9837317 -80.65    0.041
       413     80.5180   3133.2874     80.5091   3133.1510     80.5283   3133.1892     11215.16      11985.5 -10.1245 -10.1966      1.524   0  54 184.5691673 +64.9733661  86.03    0.012
       414    588.7997   2233.0007    588.8120   2232.8225    588.8215   2232.9223     14164.24     14438.27 -10.3780 -10.3988      1.467   0  57 184.9479400 +65.2121499 -84.46    0.019
       415   2304.8828   2196.3860   2304.8143   2196.2903   2304.7851   2196.2878     2999.611     3123.955  -8.6927  -8.7368      1.491   0  45 186.0820606 +65.1808642 -88.26    0.101
       416    105.5038   3007.4397    105.5257   3007.2121    105.5195   3007.4961     218797.1     200561.7 -13.3501 -13.2556      1.557   0  33 184.5915015 +65.0077294  59.56    0.042
       417   1018.1449   2839.0269   1019.5677   2837.2760   1020.0088   2835.8565      61506.2     480866.8 -11.9723 -14.2051      4.038   3 116 185.1985636 +65.0348213 -26.43    0.454
       418    775.1128   3064.5928    775.1407   3064.3659    775.1371   3064.6133     159524.6     146815.2 -13.0071 -12.9169      1.523   0  79 185.0273693 +64.9778083  58.51    0.042
       419   2769.5676   2959.5757   2769.5851   2959.3992   2769.5818   2959.5461     19333.41     19030.78 -10.7158 -10.6986      1.541   0  52 186.3375866 +64.9572631  85.60    0.049
       420    522.2957   2883.1819    522.3069   2883.0630    522.3076   2883.1150     6776.887     7259.287  -9.5776  -9.6522      1.475   0  46 184.8709704 +65.0335194  86.42    0.020
       421   2199.1704   2971.6802   2199.1188   2971.6116   2199.0892   2971.6107     4060.235     4302.595  -9.0214  -9.0843      1.495   0  81 185.9641982 +64.9692695 -61.12    0.037
       422   1661.5481   3102.8572   1661.5581   3102.6853   1661.5634   3102.8066     15422.61      15966.8 -10.4704 -10.5080      1.508   0  49 185.6050178 +64.9465944  84.14    0.031
       423   3091.9011   3135.4709   3091.8430   3135.4105   3091.8155   3135.4234     3347.299      3641.85  -8.8117  -8.9033      1.495   0  49 186.5360848 +64.8995805 -87.75    0.093
       424   1886.9890   3076.2556   1886.9755   3076.1347   1886.9776   3076.1565      7066.03     7578.814  -9.6229  -9.6990      1.494   0  54 185.7538688 +64.9483505 -22.96    0.024
       425   2390.6143   2756.3154   2390.6251   2756.1509   2390.5942   2756.2032     13085.75     13787.99 -10.2920 -10.3488      1.531   0  46 186.1028963 +65.0237647 -62.52    0.030
       426   1874.4448   2842.6538   1874.4483   2842.4929   1874.4455   2842.5991     10858.67      12195.8 -10.0894 -10.2155      1.522   0  38 185.7595801 +65.0132856 -72.27    0.009
       427   2763.9065   3046.4907   2763.9632   3046.3753   2763.9690   3046.3207     129574.5     182255.8 -12.7813 -13.1517      6.877   0  59 186.3282026 +64.9333989  -2.55    0.022
       428   1020.4589   2829.0000   1019.8959   2836.8226   1019.5425   2835.9944     16942.42       169419 -10.5724 -13.0724      6.290   3 116 185.2006219 +65.0375444  -6.11    0.697
       429    155.9493   2859.1416    155.9527   2859.0187    155.9487   2859.0709     6099.617      6764.81  -9.4633  -9.5756      1.470   0  43 184.6316856 +65.0477940 -86.55    0.012
       430   1616.3743   3102.3899   1616.3600   3102.2311   1616.3945   3102.2988     13956.21     14762.29 -10.3619 -10.4229      1.516   0  63 185.5755274 +64.9478288 -85.92    0.025
       431   2226.5923   2976.7034   2226.5767   2976.6350   2226.5583   2976.6429     2999.017     3171.533  -8.6924  -8.7532      1.494   0  51 185.9818098 +64.9671637 -62.34    0.058
       432    109.7980   2862.3831    111.1368   2862.3940    114.8910   2861.8007     35910.25     358953.2 -11.3880 -13.8876      3.017   3  79 184.6012244 +65.0478282  89.48    0.582
       433   2172.8184   2776.0034   2172.7952   2775.8875   2172.7932   2775.9613     8136.381     8856.629  -9.7761  -9.8682      1.484   0  35 185.9590367 +65.0240690 -59.89    0.048
       434   2896.1135   2828.5918   2896.1368   2828.3926   2896.1429   2828.5638     21299.19      20529.6 -10.8209 -10.7810      1.531   0  56 186.4289063 +64.9899262 -78.55    0.022
       435    114.5972   2867.0000    113.5281   2862.3558    114.6449   2861.6710     34336.55       343302 -11.3394 -13.8392      4.942   3 115 184.6041556 +65.0464525  -5.76    0.689
